SpectraSuite Data File
++++++++++++++++++++++++++++++++++++
Date: Thu Oct 13 11:19:57 CDT 2011
User: Helimak
Dark Spectrum Present: No
Reference Spectrum Present: No
Number of Sampled Component Spectra: 1
Spectrometers: USB2G37154
Integration Time (usec): 20000 (USB2G37154)
Spectra Averaged: 1 (USB2G37154)
Boxcar Smoothing: 0 (USB2G37154)
Correct for Electrical Dark: No (USB2G37154)
Strobe/Lamp Enabled: No (USB2G37154)
Correct for Detector Non-linearity: No (USB2G37154)
Correct for Stray Light: No (USB2G37154)
Number of Pixels in Processed Spectrum: 651
>>>>>Begin Processed Spectral Data<<<<<
350.00	204.59
351.00	205.16
352.00	206.80
353.00	204.68
354.00	205.51
355.00	204.65
356.00	205.29
357.00	202.61
358.00	202.45
359.00	203.18
360.00	204.78
361.00	201.97
362.00	203.72
363.00	206.25
364.00	200.20
365.00	207.86
366.00	208.68
367.00	208.02
368.00	203.91
369.00	207.89
370.00	203.03
371.00	208.21
372.00	210.09
373.00	205.88
374.00	210.32
375.00	208.75
376.00	210.30
377.00	210.81
378.00	207.86
379.00	208.49
380.00	207.90
381.00	209.80
382.00	210.59
383.00	212.70
384.00	213.44
385.00	209.47
386.00	212.98
387.00	211.07
388.00	217.06
389.00	218.11
390.00	212.90
391.00	213.94
392.00	214.30
393.00	218.10
394.00	222.11
395.00	218.55
396.00	218.03
397.00	219.34
398.00	217.39
399.00	225.99
400.00	223.91
401.00	225.85
402.00	224.83
403.00	233.75
404.00	231.76
405.00	233.60
406.00	234.00
407.00	235.72
408.00	231.02
409.00	232.18
410.00	230.82
411.00	236.31
412.00	235.73
413.00	237.02
414.00	238.21
415.00	245.60
416.00	240.23
417.00	247.17
418.00	241.64
419.00	242.49
420.00	255.25
421.00	250.39
422.00	252.62
423.00	257.35
424.00	252.06
425.00	258.96
426.00	265.20
427.00	268.79
428.00	267.94
429.00	272.68
430.00	278.80
431.00	270.37
432.00	275.01
433.00	279.75
434.00	277.21
435.00	284.36
436.00	281.06
437.00	281.92
438.00	281.15
439.00	281.70
440.00	287.37
441.00	282.99
442.00	283.36
443.00	288.86
444.00	294.68
445.00	295.21
446.00	295.75
447.00	302.28
448.00	303.34
449.00	314.97
450.00	312.89
451.00	320.05
452.00	325.70
453.00	333.99
454.00	328.82
455.00	347.84
456.00	348.19
457.00	357.17
458.00	356.32
459.00	364.65
460.00	362.62
461.00	362.19
462.00	371.00
463.00	371.35
464.00	374.00
465.00	367.92
466.00	372.26
467.00	370.78
468.00	373.47
469.00	369.84
470.00	377.34
471.00	386.80
472.00	384.95
473.00	381.77
474.00	392.04
475.00	394.25
476.00	408.93
477.00	417.28
478.00	418.07
479.00	437.93
480.00	443.48
481.00	460.29
482.00	465.28
483.00	465.90
484.00	491.03
485.00	505.30
486.00	521.70
487.00	532.34
488.00	549.19
489.00	561.72
490.00	579.38
491.00	591.68
492.00	619.70
493.00	620.24
494.00	621.26
495.00	634.36
496.00	663.68
497.00	653.44
498.00	658.55
499.00	652.01
500.00	665.98
501.00	668.39
502.00	670.00
503.00	663.16
504.00	677.38
505.00	681.37
506.00	683.44
507.00	685.67
508.00	688.68
509.00	692.30
510.00	702.55
511.00	708.00
512.00	706.90
513.00	712.04
514.00	719.61
515.00	722.60
516.00	732.05
517.00	746.29
518.00	754.74
519.00	765.18
520.00	783.78
521.00	781.50
522.00	810.96
523.00	814.79
524.00	852.13
525.00	859.92
526.00	874.87
527.00	888.05
528.00	906.85
529.00	930.16
530.00	949.31
531.00	960.23
532.00	990.47
533.00	1007.86
534.00	1028.21
535.00	1028.67
536.00	1036.82
537.00	1073.43
538.00	1088.10
539.00	1093.04
540.00	1086.95
541.00	1089.95
542.00	1107.12
543.00	1130.71
544.00	1121.38
545.00	1118.99
546.00	1117.67
547.00	1109.48
548.00	1126.55
549.00	1116.69
550.00	1121.26
551.00	1116.95
552.00	1106.31
553.00	1110.01
554.00	1145.21
555.00	1136.14
556.00	1145.88
557.00	1145.27
558.00	1141.49
559.00	1142.70
560.00	1172.95
561.00	1188.14
562.00	1204.57
563.00	1200.13
564.00	1211.07
565.00	1230.57
566.00	1238.57
567.00	1255.54
568.00	1243.05
569.00	1263.94
570.00	1277.27
571.00	1316.47
572.00	1329.92
573.00	1330.07
574.00	1340.67
575.00	1354.58
576.00	1390.34
577.00	1399.85
578.00	1408.70
579.00	1436.47
580.00	1434.15
581.00	1463.37
582.00	1450.98
583.00	1485.10
584.00	1489.74
585.00	1489.75
586.00	1502.79
587.00	1479.72
588.00	1480.79
589.00	1506.96
590.00	1477.02
591.00	1476.37
592.00	1504.85
593.00	1487.00
594.00	1483.99
595.00	1489.63
596.00	1483.54
597.00	1490.58
598.00	1471.19
599.00	1476.00
600.00	1471.34
601.00	1462.07
602.00	1468.59
603.00	1467.97
604.00	1479.51
605.00	1461.74
606.00	1489.77
607.00	1502.43
608.00	1488.23
609.00	1486.90
610.00	1492.50
611.00	1501.60
612.00	1501.58
613.00	1488.96
614.00	1508.81
615.00	1500.21
616.00	1503.65
617.00	1501.92
618.00	1511.42
619.00	1503.94
620.00	1539.69
621.00	1542.65
622.00	1553.95
623.00	1539.66
624.00	1549.58
625.00	1542.82
626.00	1587.35
627.00	1564.50
628.00	1586.62
629.00	1597.42
630.00	1606.54
631.00	1622.74
632.00	1608.19
633.00	1619.84
634.00	1632.22
635.00	1610.17
636.00	1620.29
637.00	1619.28
638.00	1628.65
639.00	1618.60
640.00	1610.36
641.00	1603.85
642.00	1603.72
643.00	1594.05
644.00	1582.63
645.00	1593.46
646.00	1578.19
647.00	1565.89
648.00	1577.74
649.00	1550.77
650.00	1545.68
651.00	1541.39
652.00	1523.17
653.00	1527.28
654.00	1499.38
655.00	1480.03
656.00	1476.42
657.00	1467.68
658.00	1461.98
659.00	1444.96
660.00	1441.46
661.00	1417.81
662.00	1404.23
663.00	1416.63
664.00	1413.19
665.00	1392.48
666.00	1402.91
667.00	1384.25
668.00	1378.43
669.00	1368.51
670.00	1363.83
671.00	1378.37
672.00	1364.78
673.00	1372.88
674.00	1349.69
675.00	1313.59
676.00	1350.83
677.00	1333.91
678.00	1345.84
679.00	1332.56
680.00	1329.20
681.00	1326.60
682.00	1337.81
683.00	1333.12
684.00	1337.92
685.00	1328.74
686.00	1320.33
687.00	1345.08
688.00	1340.28
689.00	1320.72
690.00	1333.66
691.00	1345.05
692.00	1325.95
693.00	1346.32
694.00	1362.58
695.00	1349.19
696.00	1362.00
697.00	1356.50
698.00	1347.15
699.00	1342.77
700.00	1339.69
701.00	1354.27
702.00	1347.80
703.00	1334.51
704.00	1333.53
705.00	1342.58
706.00	1339.76
707.00	1311.95
708.00	1302.75
709.00	1326.92
710.00	1325.75
711.00	1310.33
712.00	1319.57
713.00	1290.26
714.00	1262.62
715.00	1256.13
716.00	1251.69
717.00	1245.43
718.00	1220.44
719.00	1212.85
720.00	1200.27
721.00	1196.03
722.00	1172.54
723.00	1157.97
724.00	1155.27
725.00	1132.58
726.00	1128.75
727.00	1121.20
728.00	1102.78
729.00	1092.55
730.00	1096.02
731.00	1078.73
732.00	1081.83
733.00	1060.06
734.00	1058.50
735.00	1066.88
736.00	1027.61
737.00	1035.78
738.00	1039.77
739.00	1017.62
740.00	1010.64
741.00	1008.64
742.00	980.97
743.00	985.89
744.00	971.22
745.00	977.48
746.00	950.44
747.00	951.49
748.00	947.84
749.00	931.81
750.00	936.86
751.00	923.87
752.00	922.67
753.00	906.90
754.00	906.55
755.00	912.00
756.00	884.07
757.00	886.04
758.00	884.06
759.00	881.49
760.00	876.31
761.00	881.41
762.00	866.05
763.00	840.35
764.00	841.06
765.00	860.04
766.00	837.38
767.00	840.86
768.00	832.90
769.00	834.48
770.00	826.65
771.00	825.41
772.00	820.18
773.00	822.10
774.00	819.60
775.00	806.10
776.00	788.10
777.00	800.53
778.00	768.06
779.00	776.68
780.00	778.20
781.00	784.20
782.00	782.46
783.00	765.54
784.00	789.82
785.00	790.90
786.00	791.32
787.00	782.36
788.00	787.50
789.00	799.97
790.00	809.16
791.00	802.79
792.00	803.56
793.00	801.49
794.00	802.51
795.00	798.85
796.00	806.51
797.00	804.63
798.00	814.15
799.00	820.71
800.00	814.65
801.00	813.27
802.00	809.94
803.00	793.53
804.00	778.73
805.00	796.57
806.00	785.26
807.00	781.42
808.00	770.32
809.00	766.33
810.00	759.27
811.00	754.39
812.00	754.81
813.00	748.42
814.00	735.17
815.00	721.73
816.00	735.75
817.00	708.58
818.00	713.43
819.00	695.27
820.00	693.28
821.00	681.25
822.00	682.15
823.00	670.53
824.00	667.13
825.00	660.86
826.00	649.61
827.00	636.28
828.00	634.54
829.00	636.87
830.00	620.25
831.00	606.77
832.00	612.31
833.00	597.33
834.00	589.99
835.00	596.79
836.00	582.00
837.00	580.59
838.00	578.12
839.00	565.67
840.00	559.07
841.00	539.50
842.00	549.00
843.00	551.71
844.00	538.63
845.00	529.19
846.00	521.78
847.00	524.25
848.00	515.53
849.00	521.15
850.00	508.98
851.00	511.49
852.00	498.21
853.00	500.27
854.00	485.88
855.00	480.52
856.00	482.41
857.00	479.48
858.00	478.81
859.00	473.98
860.00	462.85
861.00	470.42
862.00	463.77
863.00	462.76
864.00	455.82
865.00	450.39
866.00	445.93
867.00	446.04
868.00	432.02
869.00	436.22
870.00	427.22
871.00	429.75
872.00	429.03
873.00	420.16
874.00	414.41
875.00	421.75
876.00	410.31
877.00	406.24
878.00	397.24
879.00	398.51
880.00	393.47
881.00	389.71
882.00	386.32
883.00	389.19
884.00	380.99
885.00	389.01
886.00	387.04
887.00	373.94
888.00	379.48
889.00	378.24
890.00	371.42
891.00	369.27
892.00	374.59
893.00	366.75
894.00	375.72
895.00	367.74
896.00	367.55
897.00	365.25
898.00	368.72
899.00	362.81
900.00	363.73
901.00	358.43
902.00	361.47
903.00	365.94
904.00	361.47
905.00	357.96
906.00	364.18
907.00	358.81
908.00	359.33
909.00	363.06
910.00	365.71
911.00	365.87
912.00	364.44
913.00	362.58
914.00	359.99
915.00	360.03
916.00	357.01
917.00	357.53
918.00	353.44
919.00	356.99
920.00	348.39
921.00	349.51
922.00	346.28
923.00	341.57
924.00	346.44
925.00	344.05
926.00	333.99
927.00	333.24
928.00	328.38
929.00	328.93
930.00	320.99
931.00	322.03
932.00	311.43
933.00	313.76
934.00	306.27
935.00	298.94
936.00	294.95
937.00	285.85
938.00	275.38
939.00	270.16
940.00	264.81
941.00	259.68
942.00	252.17
943.00	247.16
944.00	250.75
945.00	244.48
946.00	247.71
947.00	241.09
948.00	238.07
949.00	241.25
950.00	246.97
951.00	236.28
952.00	244.10
953.00	242.00
954.00	244.45
955.00	244.20
956.00	241.78
957.00	246.36
958.00	247.31
959.00	242.01
960.00	242.68
961.00	246.54
962.00	248.22
963.00	246.98
964.00	243.50
965.00	244.02
966.00	245.25
967.00	242.52
968.00	236.98
969.00	236.73
970.00	243.23
971.00	236.20
972.00	238.90
973.00	240.07
974.00	236.00
975.00	230.84
976.00	233.45
977.00	235.42
978.00	233.54
979.00	228.54
980.00	225.02
981.00	229.37
982.00	227.76
983.00	230.94
984.00	224.71
985.00	230.22
986.00	226.93
987.00	225.13
988.00	228.35
989.00	222.26
990.00	219.99
991.00	218.94
992.00	219.65
993.00	221.31
994.00	216.96
995.00	214.90
996.00	218.93
997.00	219.28
998.00	213.80
999.00	214.51
1000.00	211.02
>>>>>End Processed Spectral Data<<<<<
