SpectraSuite Data File
++++++++++++++++++++++++++++++++++++
Date: Thu Oct 13 11:15:51 CDT 2011
User: Helimak
Dark Spectrum Present: No
Reference Spectrum Present: No
Number of Sampled Component Spectra: 1
Spectrometers: USB2G37154
Integration Time (usec): 20000 (USB2G37154)
Spectra Averaged: 1 (USB2G37154)
Boxcar Smoothing: 0 (USB2G37154)
Correct for Electrical Dark: No (USB2G37154)
Strobe/Lamp Enabled: No (USB2G37154)
Correct for Detector Non-linearity: No (USB2G37154)
Correct for Stray Light: No (USB2G37154)
Number of Pixels in Processed Spectrum: 651
>>>>>Begin Processed Spectral Data<<<<<
350.00	202.22
351.00	203.23
352.00	204.58
353.00	200.90
354.00	192.43
355.00	202.39
356.00	204.03
357.00	197.68
358.00	204.29
359.00	202.21
360.00	202.07
361.00	202.69
362.00	206.65
363.00	203.53
364.00	204.99
365.00	205.40
366.00	202.41
367.00	202.90
368.00	206.49
369.00	205.85
370.00	202.03
371.00	202.32
372.00	200.24
373.00	202.92
374.00	205.36
375.00	203.65
376.00	201.69
377.00	203.54
378.00	201.90
379.00	203.06
380.00	212.35
381.00	206.82
382.00	206.95
383.00	203.00
384.00	207.46
385.00	209.52
386.00	206.97
387.00	203.99
388.00	204.47
389.00	201.33
390.00	202.35
391.00	204.57
392.00	206.43
393.00	203.59
394.00	203.29
395.00	202.46
396.00	201.01
397.00	205.41
398.00	203.70
399.00	203.39
400.00	204.43
401.00	205.70
402.00	206.23
403.00	206.66
404.00	204.34
405.00	206.50
406.00	205.00
407.00	205.31
408.00	207.48
409.00	206.61
410.00	201.91
411.00	208.59
412.00	207.60
413.00	204.84
414.00	208.35
415.00	206.44
416.00	205.05
417.00	211.09
418.00	204.87
419.00	202.49
420.00	205.98
421.00	207.04
422.00	204.03
423.00	203.73
424.00	205.51
425.00	203.62
426.00	206.24
427.00	204.91
428.00	206.97
429.00	206.28
430.00	203.44
431.00	205.86
432.00	203.99
433.00	203.02
434.00	207.10
435.00	212.13
436.00	210.42
437.00	208.42
438.00	204.86
439.00	204.39
440.00	205.62
441.00	209.10
442.00	209.58
443.00	206.65
444.00	204.87
445.00	205.06
446.00	207.63
447.00	205.89
448.00	204.36
449.00	206.09
450.00	206.73
451.00	204.84
452.00	205.88
453.00	201.07
454.00	203.44
455.00	206.77
456.00	208.35
457.00	203.61
458.00	205.10
459.00	205.79
460.00	205.62
461.00	203.82
462.00	205.53
463.00	204.80
464.00	204.11
465.00	208.89
466.00	204.55
467.00	205.53
468.00	205.67
469.00	205.48
470.00	203.98
471.00	202.56
472.00	202.26
473.00	201.83
474.00	205.32
475.00	207.62
476.00	207.66
477.00	204.69
478.00	205.47
479.00	206.36
480.00	210.98
481.00	208.23
482.00	207.47
483.00	206.67
484.00	209.69
485.00	206.94
486.00	206.77
487.00	205.51
488.00	204.46
489.00	206.15
490.00	209.98
491.00	204.77
492.00	204.08
493.00	205.99
494.00	208.27
495.00	204.04
496.00	211.27
497.00	209.40
498.00	201.67
499.00	202.45
500.00	205.54
501.00	209.14
502.00	204.99
503.00	205.54
504.00	206.45
505.00	208.43
506.00	207.13
507.00	199.74
508.00	204.53
509.00	201.93
510.00	207.97
511.00	199.95
512.00	203.31
513.00	206.39
514.00	205.65
515.00	199.44
516.00	205.31
517.00	204.11
518.00	203.13
519.00	204.90
520.00	203.66
521.00	205.36
522.00	205.93
523.00	205.94
524.00	198.77
525.00	198.85
526.00	203.45
527.00	203.90
528.00	205.34
529.00	205.63
530.00	206.91
531.00	204.20
532.00	205.54
533.00	202.91
534.00	207.14
535.00	203.93
536.00	205.98
537.00	206.16
538.00	204.94
539.00	208.82
540.00	208.45
541.00	210.05
542.00	213.40
543.00	215.79
544.00	213.87
545.00	218.05
546.00	214.27
547.00	208.83
548.00	204.39
549.00	204.62
550.00	208.28
551.00	205.02
552.00	205.30
553.00	204.85
554.00	202.16
555.00	200.30
556.00	204.23
557.00	202.93
558.00	204.27
559.00	204.62
560.00	203.20
561.00	207.50
562.00	202.96
563.00	208.08
564.00	203.42
565.00	205.16
566.00	202.29
567.00	206.29
568.00	204.90
569.00	205.07
570.00	205.26
571.00	205.25
572.00	204.55
573.00	204.59
574.00	204.11
575.00	202.99
576.00	203.52
577.00	204.27
578.00	206.87
579.00	208.46
580.00	208.31
581.00	208.03
582.00	207.09
583.00	206.19
584.00	205.52
585.00	206.06
586.00	207.16
587.00	205.03
588.00	208.10
589.00	202.86
590.00	204.78
591.00	203.30
592.00	204.93
593.00	204.91
594.00	204.00
595.00	201.95
596.00	202.84
597.00	205.88
598.00	203.84
599.00	208.47
600.00	208.74
601.00	204.01
602.00	204.85
603.00	204.97
604.00	206.21
605.00	204.40
606.00	206.14
607.00	205.08
608.00	205.64
609.00	201.92
610.00	207.73
611.00	219.93
612.00	213.37
613.00	211.57
614.00	207.71
615.00	208.83
616.00	207.92
617.00	204.00
618.00	205.88
619.00	207.80
620.00	205.68
621.00	201.19
622.00	208.55
623.00	205.58
624.00	205.04
625.00	202.63
626.00	204.00
627.00	204.60
628.00	202.33
629.00	206.03
630.00	208.62
631.00	207.91
632.00	205.20
633.00	204.24
634.00	204.14
635.00	204.98
636.00	205.09
637.00	202.63
638.00	204.36
639.00	205.90
640.00	203.01
641.00	202.39
642.00	201.86
643.00	203.31
644.00	199.38
645.00	203.86
646.00	203.09
647.00	201.90
648.00	203.23
649.00	204.01
650.00	207.70
651.00	200.97
652.00	203.92
653.00	203.81
654.00	203.72
655.00	204.54
656.00	200.83
657.00	203.97
658.00	200.00
659.00	205.01
660.00	205.10
661.00	200.15
662.00	201.64
663.00	206.62
664.00	199.83
665.00	204.21
666.00	203.06
667.00	201.26
668.00	199.05
669.00	203.64
670.00	202.97
671.00	201.82
672.00	201.03
673.00	201.98
674.00	198.93
675.00	203.80
676.00	196.39
677.00	204.36
678.00	209.26
679.00	206.00
680.00	201.20
681.00	203.94
682.00	203.97
683.00	204.29
684.00	207.19
685.00	205.78
686.00	207.15
687.00	200.99
688.00	204.42
689.00	204.85
690.00	204.82
691.00	205.44
692.00	203.87
693.00	202.12
694.00	201.96
695.00	202.96
696.00	203.00
697.00	205.99
698.00	202.02
699.00	203.22
700.00	202.15
701.00	204.87
702.00	201.00
703.00	202.64
704.00	199.86
705.00	202.32
706.00	202.42
707.00	204.58
708.00	204.98
709.00	202.40
710.00	202.55
711.00	199.36
712.00	206.42
713.00	200.13
714.00	206.00
715.00	206.36
716.00	202.78
717.00	201.27
718.00	202.44
719.00	204.14
720.00	201.32
721.00	203.32
722.00	204.88
723.00	204.75
724.00	205.85
725.00	202.04
726.00	207.82
727.00	203.30
728.00	207.04
729.00	202.72
730.00	198.16
731.00	201.53
732.00	203.64
733.00	203.82
734.00	202.89
735.00	198.05
736.00	201.51
737.00	201.50
738.00	206.97
739.00	205.87
740.00	203.80
741.00	205.07
742.00	208.07
743.00	206.05
744.00	202.27
745.00	209.19
746.00	205.69
747.00	203.81
748.00	204.44
749.00	203.42
750.00	201.02
751.00	199.75
752.00	208.17
753.00	207.44
754.00	203.77
755.00	205.02
756.00	206.52
757.00	205.67
758.00	204.23
759.00	203.85
760.00	202.56
761.00	206.32
762.00	204.69
763.00	205.89
764.00	201.00
765.00	203.14
766.00	203.46
767.00	204.97
768.00	202.24
769.00	204.53
770.00	207.52
771.00	204.00
772.00	201.96
773.00	205.23
774.00	201.42
775.00	203.43
776.00	203.87
777.00	204.37
778.00	208.01
779.00	203.20
780.00	204.83
781.00	202.72
782.00	202.87
783.00	202.44
784.00	203.28
785.00	205.42
786.00	204.53
787.00	200.78
788.00	205.87
789.00	199.96
790.00	208.01
791.00	204.96
792.00	206.81
793.00	202.59
794.00	191.92
795.00	205.37
796.00	209.16
797.00	201.98
798.00	203.74
799.00	201.88
800.00	205.33
801.00	197.14
802.00	202.66
803.00	204.07
804.00	206.95
805.00	202.63
806.00	206.17
807.00	204.01
808.00	201.62
809.00	205.28
810.00	204.85
811.00	202.30
812.00	203.55
813.00	199.66
814.00	200.05
815.00	203.18
816.00	200.66
817.00	204.42
818.00	204.96
819.00	197.56
820.00	200.73
821.00	205.12
822.00	200.09
823.00	203.32
824.00	199.58
825.00	204.66
826.00	204.87
827.00	202.02
828.00	201.00
829.00	201.34
830.00	202.98
831.00	204.90
832.00	200.62
833.00	205.69
834.00	208.93
835.00	203.15
836.00	202.27
837.00	201.80
838.00	204.34
839.00	202.18
840.00	203.02
841.00	204.22
842.00	202.84
843.00	203.65
844.00	205.56
845.00	204.01
846.00	204.01
847.00	204.08
848.00	198.49
849.00	200.02
850.00	202.87
851.00	202.23
852.00	204.48
853.00	198.24
854.00	208.65
855.00	200.71
856.00	202.40
857.00	205.26
858.00	202.11
859.00	203.10
860.00	204.54
861.00	203.50
862.00	204.84
863.00	204.65
864.00	199.82
865.00	201.47
866.00	203.31
867.00	200.88
868.00	206.01
869.00	208.41
870.00	198.98
871.00	203.53
872.00	202.17
873.00	201.25
874.00	202.16
875.00	205.29
876.00	202.25
877.00	204.67
878.00	205.66
879.00	205.28
880.00	204.89
881.00	200.54
882.00	202.65
883.00	203.19
884.00	200.01
885.00	200.09
886.00	204.47
887.00	201.80
888.00	204.05
889.00	202.62
890.00	203.37
891.00	191.42
892.00	204.73
893.00	203.86
894.00	205.31
895.00	203.12
896.00	199.14
897.00	204.40
898.00	195.19
899.00	202.87
900.00	203.82
901.00	198.60
902.00	201.12
903.00	205.69
904.00	207.56
905.00	202.02
906.00	203.96
907.00	204.67
908.00	199.93
909.00	205.30
910.00	205.01
911.00	202.91
912.00	201.69
913.00	202.49
914.00	202.61
915.00	201.55
916.00	201.55
917.00	205.55
918.00	204.99
919.00	204.94
920.00	207.82
921.00	205.26
922.00	204.41
923.00	204.03
924.00	201.86
925.00	203.31
926.00	205.98
927.00	204.25
928.00	204.40
929.00	203.77
930.00	201.90
931.00	207.09
932.00	202.75
933.00	201.81
934.00	202.18
935.00	203.19
936.00	206.31
937.00	205.90
938.00	205.29
939.00	203.38
940.00	206.46
941.00	200.19
942.00	204.92
943.00	201.50
944.00	205.28
945.00	198.11
946.00	202.92
947.00	202.99
948.00	203.09
949.00	205.25
950.00	206.23
951.00	203.67
952.00	199.07
953.00	203.57
954.00	201.17
955.00	203.08
956.00	201.40
957.00	205.66
958.00	202.95
959.00	199.98
960.00	201.89
961.00	204.88
962.00	202.70
963.00	205.90
964.00	202.32
965.00	206.57
966.00	204.26
967.00	202.10
968.00	208.00
969.00	205.78
970.00	202.03
971.00	203.69
972.00	202.65
973.00	208.59
974.00	203.97
975.00	205.85
976.00	202.00
977.00	204.38
978.00	200.06
979.00	203.57
980.00	203.88
981.00	202.93
982.00	202.98
983.00	205.73
984.00	205.11
985.00	203.94
986.00	205.23
987.00	203.34
988.00	203.09
989.00	209.40
990.00	203.08
991.00	199.76
992.00	201.85
993.00	206.44
994.00	206.68
995.00	200.65
996.00	200.97
997.00	202.19
998.00	201.64
999.00	200.24
1000.00	200.12
>>>>>End Processed Spectral Data<<<<<
