SpectraSuite Data File
++++++++++++++++++++++++++++++++++++
Date: Thu Oct 13 11:19:58 CDT 2011
User: Helimak
Dark Spectrum Present: No
Reference Spectrum Present: No
Number of Sampled Component Spectra: 1
Spectrometers: USB2G37154
Integration Time (usec): 20000 (USB2G37154)
Spectra Averaged: 1 (USB2G37154)
Boxcar Smoothing: 0 (USB2G37154)
Correct for Electrical Dark: No (USB2G37154)
Strobe/Lamp Enabled: No (USB2G37154)
Correct for Detector Non-linearity: No (USB2G37154)
Correct for Stray Light: No (USB2G37154)
Number of Pixels in Processed Spectrum: 651
>>>>>Begin Processed Spectral Data<<<<<
350.00	204.13
351.00	203.60
352.00	202.65
353.00	206.94
354.00	205.93
355.00	210.96
356.00	207.98
357.00	204.18
358.00	203.53
359.00	205.93
360.00	202.35
361.00	204.47
362.00	205.43
363.00	206.00
364.00	203.81
365.00	204.10
366.00	208.12
367.00	208.79
368.00	205.82
369.00	205.54
370.00	203.96
371.00	209.21
372.00	206.86
373.00	207.19
374.00	207.86
375.00	207.38
376.00	203.85
377.00	205.15
378.00	207.20
379.00	208.47
380.00	206.59
381.00	207.33
382.00	211.28
383.00	212.91
384.00	210.40
385.00	211.76
386.00	213.04
387.00	214.72
388.00	211.95
389.00	213.84
390.00	214.64
391.00	216.23
392.00	219.40
393.00	214.11
394.00	215.33
395.00	216.75
396.00	217.87
397.00	221.87
398.00	223.75
399.00	222.07
400.00	219.12
401.00	221.17
402.00	225.23
403.00	227.43
404.00	228.76
405.00	230.45
406.00	232.00
407.00	233.63
408.00	234.16
409.00	236.36
410.00	232.25
411.00	236.09
412.00	234.00
413.00	234.13
414.00	237.46
415.00	237.49
416.00	241.03
417.00	239.23
418.00	236.00
419.00	241.98
420.00	244.19
421.00	246.43
422.00	252.47
423.00	254.44
424.00	254.18
425.00	264.50
426.00	264.73
427.00	264.03
428.00	271.94
429.00	272.84
430.00	278.93
431.00	275.25
432.00	278.61
433.00	277.67
434.00	274.91
435.00	282.23
436.00	280.66
437.00	279.77
438.00	279.85
439.00	282.70
440.00	282.89
441.00	286.68
442.00	290.09
443.00	284.65
444.00	294.05
445.00	297.93
446.00	298.45
447.00	303.69
448.00	306.76
449.00	307.92
450.00	314.58
451.00	322.19
452.00	322.99
453.00	335.11
454.00	340.40
455.00	344.49
456.00	349.76
457.00	355.82
458.00	353.30
459.00	353.25
460.00	360.13
461.00	362.31
462.00	371.82
463.00	365.13
464.00	361.35
465.00	366.06
466.00	374.91
467.00	369.85
468.00	371.86
469.00	371.72
470.00	376.07
471.00	377.75
472.00	381.80
473.00	389.11
474.00	394.26
475.00	401.11
476.00	401.46
477.00	410.11
478.00	421.30
479.00	425.66
480.00	435.79
481.00	456.49
482.00	472.10
483.00	474.18
484.00	483.90
485.00	512.34
486.00	518.14
487.00	535.76
488.00	552.25
489.00	565.71
490.00	565.56
491.00	595.92
492.00	607.58
493.00	611.57
494.00	627.38
495.00	629.11
496.00	641.90
497.00	661.66
498.00	661.15
499.00	656.98
500.00	657.94
501.00	654.97
502.00	662.02
503.00	675.30
504.00	682.39
505.00	676.50
506.00	675.90
507.00	694.97
508.00	690.27
509.00	691.65
510.00	691.94
511.00	701.88
512.00	701.56
513.00	703.31
514.00	705.50
515.00	725.73
516.00	737.92
517.00	734.65
518.00	754.81
519.00	756.63
520.00	792.02
521.00	810.95
522.00	813.91
523.00	829.07
524.00	844.70
525.00	849.62
526.00	866.90
527.00	889.45
528.00	915.03
529.00	944.73
530.00	947.68
531.00	966.50
532.00	989.51
533.00	991.00
534.00	1012.85
535.00	1041.11
536.00	1047.11
537.00	1062.89
538.00	1075.22
539.00	1087.59
540.00	1093.45
541.00	1108.87
542.00	1113.45
543.00	1122.24
544.00	1131.18
545.00	1103.43
546.00	1115.02
547.00	1107.86
548.00	1108.41
549.00	1121.50
550.00	1125.64
551.00	1108.89
552.00	1114.88
553.00	1134.57
554.00	1128.88
555.00	1126.62
556.00	1131.14
557.00	1141.50
558.00	1165.06
559.00	1160.36
560.00	1171.33
561.00	1170.29
562.00	1203.33
563.00	1196.44
564.00	1215.05
565.00	1220.23
566.00	1224.99
567.00	1244.99
568.00	1256.64
569.00	1264.00
570.00	1285.47
571.00	1299.06
572.00	1317.25
573.00	1344.51
574.00	1346.02
575.00	1352.41
576.00	1372.57
577.00	1394.49
578.00	1407.33
579.00	1438.00
580.00	1439.19
581.00	1441.53
582.00	1458.36
583.00	1485.28
584.00	1476.88
585.00	1469.93
586.00	1482.42
587.00	1485.81
588.00	1483.47
589.00	1491.06
590.00	1498.36
591.00	1500.41
592.00	1489.50
593.00	1495.45
594.00	1483.03
595.00	1477.72
596.00	1480.51
597.00	1467.34
598.00	1463.51
599.00	1487.74
600.00	1457.90
601.00	1465.51
602.00	1469.74
603.00	1473.56
604.00	1483.51
605.00	1473.01
606.00	1465.91
607.00	1477.75
608.00	1484.11
609.00	1477.58
610.00	1479.65
611.00	1489.37
612.00	1499.11
613.00	1491.98
614.00	1495.63
615.00	1493.84
616.00	1508.23
617.00	1508.94
618.00	1535.50
619.00	1522.50
620.00	1534.88
621.00	1537.16
622.00	1547.04
623.00	1549.94
624.00	1561.39
625.00	1555.44
626.00	1571.37
627.00	1578.22
628.00	1590.38
629.00	1597.75
630.00	1596.56
631.00	1627.57
632.00	1608.56
633.00	1611.00
634.00	1632.88
635.00	1612.88
636.00	1618.21
637.00	1604.54
638.00	1637.23
639.00	1625.14
640.00	1600.82
641.00	1594.81
642.00	1599.69
643.00	1616.14
644.00	1586.64
645.00	1571.00
646.00	1569.42
647.00	1577.40
648.00	1564.99
649.00	1561.26
650.00	1549.32
651.00	1540.74
652.00	1540.59
653.00	1513.66
654.00	1482.27
655.00	1483.10
656.00	1471.48
657.00	1466.33
658.00	1457.00
659.00	1440.56
660.00	1454.76
661.00	1427.50
662.00	1427.04
663.00	1432.19
664.00	1393.40
665.00	1382.69
666.00	1393.31
667.00	1392.52
668.00	1367.47
669.00	1360.09
670.00	1364.60
671.00	1355.83
672.00	1360.59
673.00	1374.15
674.00	1369.08
675.00	1342.58
676.00	1358.81
677.00	1330.92
678.00	1340.37
679.00	1336.66
680.00	1331.70
681.00	1345.63
682.00	1344.74
683.00	1334.22
684.00	1321.95
685.00	1338.89
686.00	1337.66
687.00	1323.66
688.00	1324.66
689.00	1323.74
690.00	1340.87
691.00	1336.63
692.00	1334.02
693.00	1352.49
694.00	1346.32
695.00	1338.56
696.00	1355.00
697.00	1365.80
698.00	1363.24
699.00	1354.38
700.00	1361.98
701.00	1343.60
702.00	1344.13
703.00	1340.57
704.00	1327.98
705.00	1347.34
706.00	1303.28
707.00	1344.52
708.00	1318.16
709.00	1328.57
710.00	1311.02
711.00	1313.14
712.00	1313.67
713.00	1265.32
714.00	1285.63
715.00	1263.12
716.00	1258.97
717.00	1240.23
718.00	1233.06
719.00	1220.58
720.00	1206.59
721.00	1184.86
722.00	1157.20
723.00	1168.08
724.00	1124.62
725.00	1141.47
726.00	1149.27
727.00	1114.00
728.00	1099.61
729.00	1094.62
730.00	1092.37
731.00	1062.85
732.00	1080.72
733.00	1066.61
734.00	1054.05
735.00	1057.67
736.00	1023.86
737.00	1031.25
738.00	1029.10
739.00	1016.52
740.00	1024.59
741.00	1014.69
742.00	969.09
743.00	991.06
744.00	969.03
745.00	969.97
746.00	956.88
747.00	953.91
748.00	953.58
749.00	934.65
750.00	930.51
751.00	922.65
752.00	901.95
753.00	904.57
754.00	902.06
755.00	902.91
756.00	891.26
757.00	891.95
758.00	892.19
759.00	880.50
760.00	865.61
761.00	881.60
762.00	865.49
763.00	858.36
764.00	851.05
765.00	862.32
766.00	846.39
767.00	843.38
768.00	832.14
769.00	838.66
770.00	824.75
771.00	823.98
772.00	821.15
773.00	816.98
774.00	823.53
775.00	814.66
776.00	800.06
777.00	797.23
778.00	790.98
779.00	779.66
780.00	788.85
781.00	777.35
782.00	784.48
783.00	774.40
784.00	781.11
785.00	788.45
786.00	798.35
787.00	786.60
788.00	786.21
789.00	810.02
790.00	804.01
791.00	797.69
792.00	819.13
793.00	820.35
794.00	820.89
795.00	809.16
796.00	813.82
797.00	799.63
798.00	812.03
799.00	796.06
800.00	807.19
801.00	805.90
802.00	795.01
803.00	795.88
804.00	785.97
805.00	788.70
806.00	768.32
807.00	766.23
808.00	778.97
809.00	767.39
810.00	775.35
811.00	753.29
812.00	746.83
813.00	746.42
814.00	738.78
815.00	741.24
816.00	721.39
817.00	722.05
818.00	708.02
819.00	700.08
820.00	697.58
821.00	684.05
822.00	684.67
823.00	678.19
824.00	666.50
825.00	667.39
826.00	655.10
827.00	640.64
828.00	644.67
829.00	630.37
830.00	614.40
831.00	609.01
832.00	601.36
833.00	600.52
834.00	596.17
835.00	584.46
836.00	597.22
837.00	575.82
838.00	573.06
839.00	568.48
840.00	557.13
841.00	546.17
842.00	547.66
843.00	532.65
844.00	543.70
845.00	531.90
846.00	528.40
847.00	515.66
848.00	525.48
849.00	506.95
850.00	512.68
851.00	503.26
852.00	496.09
853.00	503.72
854.00	490.24
855.00	489.93
856.00	483.30
857.00	480.86
858.00	467.45
859.00	465.85
860.00	472.61
861.00	469.32
862.00	459.63
863.00	455.57
864.00	455.33
865.00	448.50
866.00	441.73
867.00	448.05
868.00	440.03
869.00	430.96
870.00	438.00
871.00	425.87
872.00	422.96
873.00	422.52
874.00	420.33
875.00	414.02
876.00	410.82
877.00	401.52
878.00	406.13
879.00	399.17
880.00	394.22
881.00	395.14
882.00	402.68
883.00	387.00
884.00	386.01
885.00	379.63
886.00	377.92
887.00	372.70
888.00	373.38
889.00	381.31
890.00	371.79
891.00	371.32
892.00	374.34
893.00	370.14
894.00	366.61
895.00	370.25
896.00	373.31
897.00	371.98
898.00	369.19
899.00	367.12
900.00	366.26
901.00	368.21
902.00	365.83
903.00	362.49
904.00	367.06
905.00	363.08
906.00	365.92
907.00	370.23
908.00	358.20
909.00	369.26
910.00	368.37
911.00	363.19
912.00	360.21
913.00	363.38
914.00	364.59
915.00	356.89
916.00	361.17
917.00	350.08
918.00	355.03
919.00	351.80
920.00	353.81
921.00	361.64
922.00	352.54
923.00	345.42
924.00	341.19
925.00	330.41
926.00	333.00
927.00	329.30
928.00	323.99
929.00	323.11
930.00	318.75
931.00	319.43
932.00	316.76
933.00	305.90
934.00	309.28
935.00	296.94
936.00	285.44
937.00	292.76
938.00	286.46
939.00	270.81
940.00	264.89
941.00	260.45
942.00	252.96
943.00	248.07
944.00	248.57
945.00	246.24
946.00	242.38
947.00	244.95
948.00	244.87
949.00	244.80
950.00	242.67
951.00	240.53
952.00	243.89
953.00	241.47
954.00	239.04
955.00	245.84
956.00	241.86
957.00	247.00
958.00	245.62
959.00	241.99
960.00	243.94
961.00	247.23
962.00	242.67
963.00	242.80
964.00	240.82
965.00	244.40
966.00	246.62
967.00	246.15
968.00	238.04
969.00	237.25
970.00	240.16
971.00	240.18
972.00	238.00
973.00	240.04
974.00	235.48
975.00	236.10
976.00	232.72
977.00	233.54
978.00	231.88
979.00	227.92
980.00	232.88
981.00	234.74
982.00	224.44
983.00	230.00
984.00	228.01
985.00	222.24
986.00	224.75
987.00	225.16
988.00	223.18
989.00	227.02
990.00	223.62
991.00	220.87
992.00	222.06
993.00	222.38
994.00	220.34
995.00	218.28
996.00	219.22
997.00	216.13
998.00	216.03
999.00	217.74
1000.00	212.28
>>>>>End Processed Spectral Data<<<<<
