SpectraSuite Data File
++++++++++++++++++++++++++++++++++++
Date: Wed Jan 25 12:44:54 CST 2012
User: Helimak
Dark Spectrum Present: No
Reference Spectrum Present: No
Number of Sampled Component Spectra: 1
Spectrometers: USB2G37154
Integration Time (usec): 500000 (USB2G37154)
Spectra Averaged: 20 (USB2G37154)
Boxcar Smoothing: 0 (USB2G37154)
Correct for Electrical Dark: No (USB2G37154)
Strobe/Lamp Enabled: No (USB2G37154)
Correct for Detector Non-linearity: No (USB2G37154)
Correct for Stray Light: No (USB2G37154)
Number of Pixels in Processed Spectrum: 651
>>>>>Begin Processed Spectral Data<<<<<
350.00	214.35
351.00	217.90
352.00	215.53
353.00	215.78
354.00	217.10
355.00	218.92
356.00	217.56
357.00	215.16
358.00	220.37
359.00	215.30
360.00	216.32
361.00	215.72
362.00	221.77
363.00	214.95
364.00	221.58
365.00	216.69
366.00	216.10
367.00	216.05
368.00	217.44
369.00	218.10
370.00	218.37
371.00	216.27
372.00	218.91
373.00	219.12
374.00	220.23
375.00	223.79
376.00	216.86
377.00	217.98
378.00	225.17
379.00	217.35
380.00	217.60
381.00	218.74
382.00	219.35
383.00	222.76
384.00	217.53
385.00	218.11
386.00	218.03
387.00	221.46
388.00	217.11
389.00	217.53
390.00	217.87
391.00	219.79
392.00	218.27
393.00	218.38
394.00	221.40
395.00	219.17
396.00	218.17
397.00	218.23
398.00	217.44
399.00	220.11
400.00	219.28
401.00	216.67
402.00	219.62
403.00	220.73
404.00	220.14
405.00	221.58
406.00	219.15
407.00	219.95
408.00	219.78
409.00	221.83
410.00	221.31
411.00	221.74
412.00	223.76
413.00	224.72
414.00	226.19
415.00	230.35
416.00	230.18
417.00	233.66
418.00	235.38
419.00	238.34
420.00	243.57
421.00	244.31
422.00	248.31
423.00	253.33
424.00	254.88
425.00	259.49
426.00	262.07
427.00	272.93
428.00	266.86
429.00	269.43
430.00	272.35
431.00	273.67
432.00	285.94
433.00	279.73
434.00	276.95
435.00	281.63
436.00	284.10
437.00	295.23
438.00	279.83
439.00	282.87
440.00	284.76
441.00	287.75
442.00	285.23
443.00	287.36
444.00	289.66
445.00	291.77
446.00	295.42
447.00	297.64
448.00	300.04
449.00	304.41
450.00	306.07
451.00	310.49
452.00	313.79
453.00	321.34
454.00	321.75
455.00	328.16
456.00	332.84
457.00	336.48
458.00	336.18
459.00	337.09
460.00	340.42
461.00	342.04
462.00	344.71
463.00	344.65
464.00	344.81
465.00	353.38
466.00	354.20
467.00	341.85
468.00	346.12
469.00	346.02
470.00	347.11
471.00	346.86
472.00	351.48
473.00	355.14
474.00	360.59
475.00	360.37
476.00	365.89
477.00	370.81
478.00	376.55
479.00	381.47
480.00	389.53
481.00	397.81
482.00	404.32
483.00	411.45
484.00	422.29
485.00	431.75
486.00	441.65
487.00	448.48
488.00	456.07
489.00	470.07
490.00	477.65
491.00	483.55
492.00	496.28
493.00	499.07
494.00	502.40
495.00	503.94
496.00	510.62
497.00	510.04
498.00	510.91
499.00	514.70
500.00	512.84
501.00	511.62
502.00	513.95
503.00	514.27
504.00	514.86
505.00	510.99
506.00	513.22
507.00	516.13
508.00	510.91
509.00	508.83
510.00	511.28
511.00	518.26
512.00	515.47
513.00	515.82
514.00	516.19
515.00	521.47
516.00	521.44
517.00	522.56
518.00	527.04
519.00	534.60
520.00	539.62
521.00	540.27
522.00	546.75
523.00	549.25
524.00	556.79
525.00	565.77
526.00	571.34
527.00	575.00
528.00	582.35
529.00	595.82
530.00	594.41
531.00	602.52
532.00	610.69
533.00	614.89
534.00	619.74
535.00	626.95
536.00	630.57
537.00	634.87
538.00	637.75
539.00	637.40
540.00	637.99
541.00	639.95
542.00	641.35
543.00	640.19
544.00	637.70
545.00	632.59
546.00	634.35
547.00	634.50
548.00	623.41
549.00	624.83
550.00	622.34
551.00	619.15
552.00	616.61
553.00	615.89
554.00	618.30
555.00	618.20
556.00	619.30
557.00	614.97
558.00	615.89
559.00	616.57
560.00	622.96
561.00	620.15
562.00	622.21
563.00	623.56
564.00	629.20
565.00	632.84
566.00	636.78
567.00	640.93
568.00	641.50
569.00	640.87
570.00	658.13
571.00	683.41
572.00	660.62
573.00	672.38
574.00	672.84
575.00	669.82
576.00	678.48
577.00	681.46
578.00	688.95
579.00	694.83
580.00	696.93
581.00	702.75
582.00	704.62
583.00	711.33
584.00	714.05
585.00	711.60
586.00	714.36
587.00	717.61
588.00	714.79
589.00	720.42
590.00	720.02
591.00	718.37
592.00	718.79
593.00	717.54
594.00	719.50
595.00	714.43
596.00	720.10
597.00	718.46
598.00	719.25
599.00	723.63
600.00	718.69
601.00	722.81
602.00	719.83
603.00	728.32
604.00	724.31
605.00	725.29
606.00	728.12
607.00	731.33
608.00	730.81
609.00	731.33
610.00	734.19
611.00	748.60
612.00	746.70
613.00	752.31
614.00	748.71
615.00	755.90
616.00	760.87
617.00	759.17
618.00	770.25
619.00	807.40
620.00	777.20
621.00	783.77
622.00	785.10
623.00	789.37
624.00	796.98
625.00	799.10
626.00	805.28
627.00	811.07
628.00	821.66
629.00	831.29
630.00	826.38
631.00	841.49
632.00	839.45
633.00	841.65
634.00	845.69
635.00	852.44
636.00	860.82
637.00	852.13
638.00	860.18
639.00	856.67
640.00	871.20
641.00	861.52
642.00	856.78
643.00	862.32
644.00	859.86
645.00	856.02
646.00	861.36
647.00	854.91
648.00	848.26
649.00	848.10
650.00	846.59
651.00	846.79
652.00	840.17
653.00	840.29
654.00	839.20
655.00	832.85
656.00	830.02
657.00	831.20
658.00	829.04
659.00	823.95
660.00	818.78
661.00	817.98
662.00	813.34
663.00	815.67
664.00	826.69
665.00	808.97
666.00	805.38
667.00	806.72
668.00	809.64
669.00	794.26
670.00	795.39
671.00	796.11
672.00	792.70
673.00	793.77
674.00	793.06
675.00	789.57
676.00	792.15
677.00	788.93
678.00	791.37
679.00	791.01
680.00	787.56
681.00	792.20
682.00	797.22
683.00	785.73
684.00	804.85
685.00	802.78
686.00	786.53
687.00	786.01
688.00	789.96
689.00	789.35
690.00	790.62
691.00	793.92
692.00	791.08
693.00	791.52
694.00	795.10
695.00	799.41
696.00	799.30
697.00	806.55
698.00	798.74
699.00	800.58
700.00	796.87
701.00	797.57
702.00	804.22
703.00	801.91
704.00	799.58
705.00	801.39
706.00	794.15
707.00	791.83
708.00	791.18
709.00	794.85
710.00	789.37
711.00	784.15
712.00	787.25
713.00	777.70
714.00	776.51
715.00	771.45
716.00	762.24
717.00	757.41
718.00	751.03
719.00	746.75
720.00	738.41
721.00	730.38
722.00	719.20
723.00	717.75
724.00	710.66
725.00	743.42
726.00	694.55
727.00	688.61
728.00	688.71
729.00	684.09
730.00	681.12
731.00	678.80
732.00	673.02
733.00	671.66
734.00	667.56
735.00	661.92
736.00	655.94
737.00	654.54
738.00	652.97
739.00	647.96
740.00	645.90
741.00	638.36
742.00	633.64
743.00	633.42
744.00	627.02
745.00	644.56
746.00	614.90
747.00	614.20
748.00	612.01
749.00	610.06
750.00	604.52
751.00	602.19
752.00	594.49
753.00	600.11
754.00	594.87
755.00	591.77
756.00	588.38
757.00	590.82
758.00	594.38
759.00	594.71
760.00	582.13
761.00	580.16
762.00	583.69
763.00	584.23
764.00	567.39
765.00	567.73
766.00	566.43
767.00	566.03
768.00	561.62
769.00	562.80
770.00	558.48
771.00	558.45
772.00	555.90
773.00	554.80
774.00	548.45
775.00	557.06
776.00	545.47
777.00	545.04
778.00	540.23
779.00	551.15
780.00	536.50
781.00	533.69
782.00	536.46
783.00	534.69
784.00	537.35
785.00	538.28
786.00	539.10
787.00	542.70
788.00	545.36
789.00	551.25
790.00	547.48
791.00	548.59
792.00	546.72
793.00	550.39
794.00	550.72
795.00	553.86
796.00	552.14
797.00	554.24
798.00	561.12
799.00	556.46
800.00	553.80
801.00	550.83
802.00	551.99
803.00	555.09
804.00	543.06
805.00	542.55
806.00	545.13
807.00	541.82
808.00	541.93
809.00	539.34
810.00	533.68
811.00	528.06
812.00	527.32
813.00	522.23
814.00	522.55
815.00	515.06
816.00	510.14
817.00	513.97
818.00	503.66
819.00	501.60
820.00	494.57
821.00	488.54
822.00	491.65
823.00	484.77
824.00	477.70
825.00	489.83
826.00	473.55
827.00	467.84
828.00	459.78
829.00	460.74
830.00	453.56
831.00	451.76
832.00	448.09
833.00	445.42
834.00	439.06
835.00	442.19
836.00	434.03
837.00	430.41
838.00	427.47
839.00	423.73
840.00	422.01
841.00	417.57
842.00	416.82
843.00	419.80
844.00	405.80
845.00	405.40
846.00	402.63
847.00	400.22
848.00	397.76
849.00	393.56
850.00	393.03
851.00	388.92
852.00	386.93
853.00	389.47
854.00	381.42
855.00	380.10
856.00	391.15
857.00	375.50
858.00	377.86
859.00	371.06
860.00	368.50
861.00	375.82
862.00	363.38
863.00	360.76
864.00	367.64
865.00	360.85
866.00	355.80
867.00	357.14
868.00	355.16
869.00	348.15
870.00	346.94
871.00	343.72
872.00	346.39
873.00	343.49
874.00	335.59
875.00	335.96
876.00	335.56
877.00	332.79
878.00	330.26
879.00	328.74
880.00	327.34
881.00	328.12
882.00	326.34
883.00	323.03
884.00	320.75
885.00	321.62
886.00	317.90
887.00	320.42
888.00	316.50
889.00	316.20
890.00	316.32
891.00	319.82
892.00	317.10
893.00	313.55
894.00	311.29
895.00	320.96
896.00	311.62
897.00	309.28
898.00	309.78
899.00	310.03
900.00	312.84
901.00	313.28
902.00	310.47
903.00	321.16
904.00	309.45
905.00	308.59
906.00	318.46
907.00	312.01
908.00	310.06
909.00	308.95
910.00	308.56
911.00	309.54
912.00	309.49
913.00	308.07
914.00	310.41
915.00	307.12
916.00	308.69
917.00	308.76
918.00	305.16
919.00	305.95
920.00	302.10
921.00	304.31
922.00	297.83
923.00	299.14
924.00	295.47
925.00	296.73
926.00	292.15
927.00	289.83
928.00	286.13
929.00	285.72
930.00	284.37
931.00	280.36
932.00	277.81
933.00	277.87
934.00	273.31
935.00	269.25
936.00	266.44
937.00	263.31
938.00	261.71
939.00	257.92
940.00	250.87
941.00	250.31
942.00	249.40
943.00	244.46
944.00	239.76
945.00	249.16
946.00	238.70
947.00	239.69
948.00	237.62
949.00	238.31
950.00	239.70
951.00	239.90
952.00	237.47
953.00	239.15
954.00	237.49
955.00	242.17
956.00	240.25
957.00	242.02
958.00	240.41
959.00	240.79
960.00	240.88
961.00	238.77
962.00	238.34
963.00	238.81
964.00	239.84
965.00	237.12
966.00	236.44
967.00	240.57
968.00	239.37
969.00	236.30
970.00	235.54
971.00	238.55
972.00	236.57
973.00	241.82
974.00	237.90
975.00	233.74
976.00	238.44
977.00	231.72
978.00	233.38
979.00	232.79
980.00	229.69
981.00	230.02
982.00	232.23
983.00	236.17
984.00	229.78
985.00	231.66
986.00	228.48
987.00	228.25
988.00	230.79
989.00	228.61
990.00	225.72
991.00	228.19
992.00	226.76
993.00	226.62
994.00	226.92
995.00	226.02
996.00	226.27
997.00	225.95
998.00	224.51
999.00	226.40
1000.00	223.20
>>>>>End Processed Spectral Data<<<<<
