SpectraSuite Data File
++++++++++++++++++++++++++++++++++++
Date: Fri Jan 27 16:20:40 CST 2012
User: Helimak
Dark Spectrum Present: No
Reference Spectrum Present: No
Number of Sampled Component Spectra: 1
Spectrometers: USB2G37154
Integration Time (usec): 150000 (USB2G37154)
Spectra Averaged: 200 (USB2G37154)
Boxcar Smoothing: 0 (USB2G37154)
Correct for Electrical Dark: No (USB2G37154)
Strobe/Lamp Enabled: No (USB2G37154)
Correct for Detector Non-linearity: No (USB2G37154)
Correct for Stray Light: No (USB2G37154)
Number of Pixels in Processed Spectrum: 651
>>>>>Begin Processed Spectral Data<<<<<
350.00	213.95
351.00	214.91
352.00	214.05
353.00	214.12
354.00	214.41
355.00	215.05
356.00	215.11
357.00	214.38
358.00	216.49
359.00	214.95
360.00	215.32
361.00	215.15
362.00	216.99
363.00	215.00
364.00	217.02
365.00	215.95
366.00	215.53
367.00	215.95
368.00	215.78
369.00	216.04
370.00	216.75
371.00	216.06
372.00	216.95
373.00	216.52
374.00	217.45
375.00	218.76
376.00	216.51
377.00	216.90
378.00	218.96
379.00	216.75
380.00	217.11
381.00	217.17
382.00	217.54
383.00	218.58
384.00	217.26
385.00	217.61
386.00	217.67
387.00	218.20
388.00	217.50
389.00	217.96
390.00	218.07
391.00	218.68
392.00	218.35
393.00	218.96
394.00	219.38
395.00	219.13
396.00	219.13
397.00	219.43
398.00	219.53
399.00	220.33
400.00	220.66
401.00	220.83
402.00	222.31
403.00	223.15
404.00	223.99
405.00	225.37
406.00	225.90
407.00	227.83
408.00	229.14
409.00	231.62
410.00	232.98
411.00	235.48
412.00	238.15
413.00	241.17
414.00	243.63
415.00	247.19
416.00	249.33
417.00	253.06
418.00	255.91
419.00	259.55
420.00	263.45
421.00	265.85
422.00	270.87
423.00	274.92
424.00	279.04
425.00	283.47
426.00	287.82
427.00	294.46
428.00	295.37
429.00	298.57
430.00	300.88
431.00	301.92
432.00	308.11
433.00	306.25
434.00	305.36
435.00	310.20
436.00	309.46
437.00	313.05
438.00	308.12
439.00	311.45
440.00	312.08
441.00	313.27
442.00	313.67
443.00	316.29
444.00	318.78
445.00	320.09
446.00	324.28
447.00	327.37
448.00	330.57
449.00	335.29
450.00	339.24
451.00	346.16
452.00	351.62
453.00	359.16
454.00	361.06
455.00	367.32
456.00	374.36
457.00	378.03
458.00	379.44
459.00	381.95
460.00	384.28
461.00	384.53
462.00	388.21
463.00	386.04
464.00	385.19
465.00	388.48
466.00	389.70
467.00	385.99
468.00	388.00
469.00	388.93
470.00	390.20
471.00	391.93
472.00	396.85
473.00	400.17
474.00	405.92
475.00	408.87
476.00	415.99
477.00	423.52
478.00	431.36
479.00	438.61
480.00	448.33
481.00	456.47
482.00	466.67
483.00	476.83
484.00	490.87
485.00	502.69
486.00	516.17
487.00	527.07
488.00	539.13
489.00	555.42
490.00	564.49
491.00	575.59
492.00	587.76
493.00	596.23
494.00	602.85
495.00	607.42
496.00	612.65
497.00	618.24
498.00	619.85
499.00	621.47
500.00	622.68
501.00	621.36
502.00	620.09
503.00	622.01
504.00	623.32
505.00	620.80
506.00	624.32
507.00	626.14
508.00	625.64
509.00	625.25
510.00	626.16
511.00	632.81
512.00	632.43
513.00	637.01
514.00	637.70
515.00	643.84
516.00	647.64
517.00	652.15
518.00	661.65
519.00	668.65
520.00	676.48
521.00	683.17
522.00	692.44
523.00	702.17
524.00	711.20
525.00	721.99
526.00	732.88
527.00	744.20
528.00	757.36
529.00	771.45
530.00	778.88
531.00	791.68
532.00	806.74
533.00	814.04
534.00	825.09
535.00	834.41
536.00	840.96
537.00	848.80
538.00	856.67
539.00	857.22
540.00	860.51
541.00	867.43
542.00	870.89
543.00	869.65
544.00	869.86
545.00	864.41
546.00	864.88
547.00	859.17
548.00	853.80
549.00	854.79
550.00	850.14
551.00	847.11
552.00	845.76
553.00	845.61
554.00	848.67
555.00	847.33
556.00	849.59
557.00	849.83
558.00	848.09
559.00	852.44
560.00	856.22
561.00	859.15
562.00	869.88
563.00	868.36
564.00	875.44
565.00	882.92
566.00	888.88
567.00	894.22
568.00	896.58
569.00	902.99
570.00	914.07
571.00	932.75
572.00	930.07
573.00	940.57
574.00	949.50
575.00	953.38
576.00	965.27
577.00	969.84
578.00	980.24
579.00	989.03
580.00	996.60
581.00	999.88
582.00	1003.92
583.00	1012.61
584.00	1018.92
585.00	1011.71
586.00	1016.85
587.00	1018.58
588.00	1015.89
589.00	1017.61
590.00	1015.32
591.00	1014.67
592.00	1011.09
593.00	1008.68
594.00	1011.72
595.00	1007.81
596.00	1005.17
597.00	1001.33
598.00	999.24
599.00	1001.43
600.00	999.93
601.00	996.47
602.00	990.46
603.00	993.73
604.00	992.87
605.00	990.52
606.00	993.62
607.00	994.10
608.00	993.26
609.00	992.08
610.00	991.16
611.00	1007.40
612.00	1007.58
613.00	1005.08
614.00	1007.23
615.00	1010.01
616.00	1010.88
617.00	1012.83
618.00	1014.68
619.00	1030.13
620.00	1023.35
621.00	1029.32
622.00	1032.60
623.00	1036.37
624.00	1042.33
625.00	1046.16
626.00	1050.09
627.00	1055.22
628.00	1061.22
629.00	1068.89
630.00	1069.71
631.00	1080.36
632.00	1078.65
633.00	1074.95
634.00	1082.46
635.00	1083.56
636.00	1088.64
637.00	1082.81
638.00	1088.68
639.00	1082.66
640.00	1090.03
641.00	1083.38
642.00	1076.63
643.00	1077.90
644.00	1071.84
645.00	1067.66
646.00	1061.62
647.00	1056.82
648.00	1049.20
649.00	1045.09
650.00	1039.20
651.00	1035.16
652.00	1025.93
653.00	1020.00
654.00	1013.34
655.00	1006.90
656.00	999.79
657.00	994.88
658.00	992.48
659.00	983.80
660.00	980.02
661.00	973.63
662.00	970.52
663.00	972.03
664.00	966.37
665.00	953.70
666.00	953.67
667.00	949.49
668.00	947.12
669.00	938.29
670.00	940.20
671.00	936.52
672.00	931.40
673.00	932.24
674.00	928.54
675.00	924.02
676.00	929.20
677.00	923.84
678.00	925.83
679.00	921.97
680.00	919.95
681.00	921.33
682.00	923.78
683.00	916.33
684.00	926.61
685.00	923.32
686.00	916.46
687.00	917.58
688.00	921.07
689.00	921.81
690.00	923.25
691.00	922.67
692.00	922.35
693.00	924.01
694.00	928.31
695.00	931.12
696.00	929.42
697.00	933.80
698.00	930.38
699.00	932.43
700.00	928.90
701.00	932.47
702.00	931.77
703.00	929.86
704.00	926.13
705.00	931.88
706.00	920.70
707.00	918.97
708.00	919.26
709.00	920.31
710.00	913.75
711.00	909.88
712.00	908.37
713.00	896.51
714.00	892.54
715.00	887.92
716.00	878.95
717.00	871.83
718.00	862.83
719.00	855.16
720.00	845.78
721.00	836.77
722.00	823.19
723.00	818.05
724.00	810.96
725.00	814.97
726.00	793.47
727.00	783.79
728.00	783.87
729.00	777.02
730.00	773.54
731.00	767.40
732.00	763.26
733.00	759.33
734.00	750.41
735.00	751.23
736.00	739.53
737.00	734.04
738.00	737.94
739.00	726.13
740.00	726.63
741.00	721.32
742.00	710.67
743.00	708.59
744.00	703.59
745.00	704.08
746.00	689.65
747.00	690.29
748.00	683.89
749.00	678.75
750.00	672.59
751.00	672.93
752.00	664.60
753.00	669.24
754.00	662.06
755.00	658.57
756.00	652.74
757.00	651.23
758.00	650.35
759.00	652.25
760.00	642.11
761.00	643.07
762.00	640.15
763.00	634.13
764.00	626.38
765.00	625.41
766.00	623.31
767.00	622.83
768.00	616.11
769.00	617.55
770.00	612.80
771.00	611.22
772.00	609.93
773.00	607.59
774.00	603.62
775.00	601.67
776.00	595.41
777.00	595.18
778.00	588.89
779.00	591.16
780.00	584.95
781.00	584.91
782.00	583.91
783.00	583.50
784.00	584.45
785.00	585.27
786.00	586.97
787.00	589.47
788.00	592.31
789.00	595.59
790.00	594.70
791.00	596.20
792.00	597.14
793.00	600.11
794.00	599.93
795.00	601.98
796.00	600.96
797.00	602.52
798.00	604.44
799.00	601.98
800.00	600.99
801.00	599.91
802.00	599.08
803.00	598.50
804.00	592.63
805.00	590.73
806.00	589.78
807.00	587.14
808.00	585.25
809.00	580.58
810.00	577.02
811.00	571.74
812.00	569.02
813.00	564.97
814.00	560.11
815.00	556.43
816.00	551.30
817.00	548.17
818.00	543.45
819.00	537.53
820.00	531.89
821.00	527.21
822.00	523.84
823.00	519.28
824.00	513.27
825.00	513.23
826.00	504.85
827.00	499.72
828.00	495.06
829.00	491.92
830.00	485.07
831.00	481.30
832.00	477.32
833.00	474.13
834.00	468.46
835.00	468.17
836.00	462.00
837.00	457.50
838.00	453.64
839.00	450.76
840.00	446.88
841.00	443.07
842.00	441.31
843.00	437.78
844.00	433.64
845.00	430.47
846.00	425.73
847.00	421.30
848.00	419.64
849.00	415.85
850.00	414.73
851.00	412.17
852.00	408.29
853.00	406.31
854.00	402.06
855.00	398.79
856.00	400.05
857.00	396.04
858.00	392.32
859.00	389.96
860.00	386.86
861.00	388.47
862.00	381.70
863.00	379.15
864.00	378.13
865.00	375.45
866.00	371.73
867.00	371.21
868.00	368.81
869.00	364.91
870.00	361.76
871.00	360.00
872.00	359.28
873.00	356.33
874.00	351.51
875.00	350.90
876.00	347.85
877.00	346.63
878.00	343.45
879.00	341.54
880.00	340.56
881.00	339.53
882.00	337.52
883.00	334.97
884.00	334.30
885.00	331.93
886.00	330.56
887.00	329.32
888.00	327.62
889.00	326.73
890.00	326.10
891.00	326.61
892.00	324.95
893.00	323.08
894.00	321.73
895.00	324.44
896.00	321.68
897.00	320.38
898.00	321.98
899.00	321.07
900.00	321.59
901.00	321.71
902.00	320.73
903.00	324.84
904.00	320.77
905.00	320.84
906.00	323.13
907.00	321.42
908.00	320.53
909.00	319.43
910.00	319.82
911.00	319.34
912.00	319.21
913.00	318.48
914.00	317.85
915.00	316.80
916.00	316.49
917.00	315.52
918.00	313.42
919.00	312.61
920.00	310.03
921.00	310.32
922.00	305.78
923.00	305.78
924.00	303.04
925.00	302.00
926.00	299.12
927.00	297.26
928.00	293.94
929.00	292.23
930.00	290.12
931.00	287.20
932.00	284.36
933.00	282.99
934.00	279.18
935.00	275.62
936.00	271.97
937.00	267.72
938.00	264.11
939.00	259.03
940.00	253.23
941.00	250.17
942.00	248.09
943.00	244.32
944.00	241.56
945.00	243.83
946.00	239.43
947.00	239.56
948.00	238.95
949.00	239.32
950.00	239.88
951.00	240.39
952.00	239.67
953.00	240.62
954.00	239.57
955.00	241.69
956.00	241.07
957.00	241.26
958.00	241.24
959.00	240.57
960.00	240.29
961.00	239.88
962.00	240.26
963.00	239.52
964.00	239.59
965.00	238.71
966.00	238.21
967.00	238.79
968.00	238.13
969.00	237.11
970.00	235.96
971.00	236.92
972.00	235.90
973.00	237.00
974.00	235.30
975.00	234.08
976.00	234.78
977.00	232.11
978.00	232.73
979.00	231.93
980.00	230.81
981.00	230.23
982.00	230.42
983.00	231.35
984.00	229.17
985.00	229.43
986.00	228.03
987.00	227.39
988.00	228.35
989.00	227.05
990.00	225.55
991.00	225.84
992.00	225.18
993.00	225.67
994.00	224.56
995.00	224.23
996.00	223.42
997.00	224.00
998.00	222.81
999.00	222.98
1000.00	221.60
>>>>>End Processed Spectral Data<<<<<
