SpectraSuite Data File
++++++++++++++++++++++++++++++++++++
Date: Fri Jan 27 16:42:41 CST 2012
User: Helimak
Dark Spectrum Present: No
Reference Spectrum Present: No
Number of Sampled Component Spectra: 1
Spectrometers: USB2G37154
Integration Time (usec): 150000 (USB2G37154)
Spectra Averaged: 200 (USB2G37154)
Boxcar Smoothing: 0 (USB2G37154)
Correct for Electrical Dark: No (USB2G37154)
Strobe/Lamp Enabled: No (USB2G37154)
Correct for Detector Non-linearity: No (USB2G37154)
Correct for Stray Light: No (USB2G37154)
Number of Pixels in Processed Spectrum: 651
>>>>>Begin Processed Spectral Data<<<<<
350.00	213.75
351.00	214.84
352.00	213.82
353.00	214.31
354.00	214.70
355.00	215.46
356.00	215.16
357.00	214.34
358.00	216.64
359.00	214.91
360.00	215.26
361.00	214.92
362.00	217.25
363.00	214.98
364.00	217.02
365.00	215.70
366.00	215.72
367.00	215.92
368.00	215.55
369.00	216.18
370.00	216.42
371.00	215.90
372.00	216.65
373.00	216.24
374.00	217.49
375.00	219.01
376.00	216.74
377.00	217.13
378.00	218.96
379.00	216.93
380.00	217.12
381.00	216.88
382.00	217.83
383.00	218.76
384.00	217.26
385.00	217.57
386.00	217.59
387.00	218.35
388.00	217.63
389.00	217.76
390.00	218.00
391.00	218.56
392.00	218.14
393.00	218.70
394.00	219.54
395.00	218.64
396.00	219.14
397.00	219.64
398.00	219.62
399.00	220.39
400.00	220.86
401.00	220.88
402.00	222.08
403.00	223.00
404.00	224.00
405.00	225.25
406.00	226.20
407.00	227.93
408.00	229.26
409.00	231.48
410.00	233.35
411.00	235.21
412.00	238.03
413.00	240.97
414.00	243.53
415.00	246.61
416.00	249.33
417.00	253.04
418.00	255.88
419.00	259.20
420.00	262.68
421.00	265.56
422.00	270.39
423.00	274.50
424.00	278.53
425.00	282.91
426.00	286.87
427.00	293.53
428.00	294.30
429.00	297.64
430.00	299.81
431.00	301.68
432.00	307.17
433.00	305.60
434.00	304.62
435.00	309.37
436.00	309.10
437.00	312.59
438.00	307.42
439.00	310.46
440.00	311.04
441.00	312.27
442.00	312.54
443.00	314.81
444.00	318.05
445.00	319.81
446.00	323.03
447.00	326.70
448.00	329.81
449.00	334.34
450.00	338.73
451.00	345.41
452.00	350.03
453.00	357.84
454.00	360.39
455.00	366.20
456.00	372.85
457.00	376.63
458.00	378.60
459.00	380.53
460.00	383.35
461.00	383.22
462.00	387.69
463.00	384.98
464.00	383.86
465.00	387.00
466.00	388.78
467.00	384.85
468.00	386.44
469.00	388.33
470.00	388.90
471.00	390.63
472.00	395.30
473.00	398.85
474.00	403.90
475.00	407.73
476.00	415.05
477.00	421.95
478.00	429.42
479.00	436.84
480.00	446.33
481.00	453.95
482.00	465.42
483.00	475.35
484.00	489.06
485.00	500.69
486.00	513.63
487.00	525.23
488.00	538.14
489.00	552.89
490.00	561.33
491.00	573.32
492.00	585.42
493.00	594.21
494.00	601.66
495.00	605.49
496.00	609.91
497.00	614.70
498.00	616.73
499.00	619.02
500.00	619.73
501.00	618.29
502.00	617.67
503.00	619.53
504.00	621.88
505.00	618.92
506.00	621.91
507.00	623.60
508.00	623.02
509.00	623.33
510.00	624.19
511.00	630.01
512.00	630.17
513.00	633.76
514.00	635.63
515.00	641.21
516.00	643.69
517.00	649.21
518.00	658.67
519.00	666.69
520.00	674.76
521.00	680.82
522.00	689.00
523.00	699.18
524.00	709.43
525.00	718.87
526.00	730.08
527.00	741.62
528.00	754.31
529.00	769.38
530.00	775.39
531.00	790.58
532.00	803.78
533.00	809.77
534.00	820.56
535.00	830.71
536.00	837.59
537.00	845.30
538.00	852.70
539.00	853.49
540.00	856.56
541.00	864.55
542.00	867.18
543.00	866.49
544.00	866.86
545.00	860.49
546.00	861.39
547.00	854.70
548.00	849.83
549.00	851.36
550.00	846.69
551.00	843.97
552.00	842.87
553.00	843.18
554.00	844.94
555.00	844.84
556.00	846.23
557.00	847.53
558.00	845.67
559.00	850.51
560.00	852.84
561.00	857.16
562.00	865.74
563.00	864.15
564.00	872.85
565.00	880.99
566.00	885.26
567.00	890.54
568.00	892.62
569.00	898.57
570.00	910.06
571.00	928.11
572.00	926.16
573.00	938.80
574.00	944.73
575.00	950.28
576.00	963.14
577.00	965.07
578.00	976.35
579.00	986.27
580.00	991.70
581.00	996.55
582.00	999.77
583.00	1008.09
584.00	1015.53
585.00	1009.32
586.00	1012.22
587.00	1014.29
588.00	1011.31
589.00	1013.66
590.00	1011.15
591.00	1010.49
592.00	1007.26
593.00	1007.76
594.00	1007.30
595.00	1002.94
596.00	1000.45
597.00	997.82
598.00	995.59
599.00	996.70
600.00	994.75
601.00	992.75
602.00	985.23
603.00	991.05
604.00	989.09
605.00	986.21
606.00	989.53
607.00	989.65
608.00	990.01
609.00	990.86
610.00	989.41
611.00	1002.63
612.00	1003.84
613.00	1002.50
614.00	1002.28
615.00	1005.06
616.00	1005.90
617.00	1008.39
618.00	1011.03
619.00	1028.31
620.00	1020.98
621.00	1025.87
622.00	1028.91
623.00	1033.31
624.00	1038.12
625.00	1042.43
626.00	1046.14
627.00	1052.16
628.00	1058.08
629.00	1065.54
630.00	1064.92
631.00	1076.95
632.00	1073.79
633.00	1070.03
634.00	1078.03
635.00	1080.89
636.00	1084.73
637.00	1079.12
638.00	1082.89
639.00	1079.18
640.00	1085.60
641.00	1079.85
642.00	1072.34
643.00	1072.19
644.00	1066.52
645.00	1062.35
646.00	1057.63
647.00	1052.51
648.00	1046.15
649.00	1040.88
650.00	1035.57
651.00	1032.44
652.00	1022.70
653.00	1016.34
654.00	1010.14
655.00	1003.57
656.00	995.56
657.00	991.01
658.00	988.59
659.00	979.03
660.00	975.80
661.00	969.70
662.00	965.79
663.00	967.21
664.00	962.90
665.00	949.06
666.00	948.88
667.00	945.46
668.00	942.61
669.00	934.13
670.00	935.65
671.00	932.95
672.00	926.67
673.00	927.43
674.00	923.89
675.00	919.43
676.00	925.31
677.00	920.62
678.00	922.49
679.00	917.88
680.00	915.61
681.00	917.80
682.00	920.26
683.00	912.83
684.00	921.24
685.00	919.13
686.00	911.36
687.00	914.20
688.00	916.68
689.00	918.93
690.00	918.35
691.00	919.28
692.00	919.74
693.00	920.25
694.00	925.74
695.00	927.87
696.00	927.06
697.00	930.95
698.00	927.32
699.00	929.31
700.00	926.03
701.00	927.04
702.00	928.25
703.00	927.07
704.00	923.33
705.00	926.43
706.00	915.79
707.00	915.68
708.00	916.32
709.00	916.26
710.00	910.80
711.00	904.90
712.00	904.26
713.00	892.91
714.00	888.27
715.00	883.78
716.00	874.58
717.00	867.42
718.00	859.49
719.00	852.37
720.00	842.14
721.00	833.36
722.00	821.90
723.00	814.96
724.00	807.88
725.00	811.04
726.00	791.68
727.00	780.75
728.00	779.57
729.00	774.79
730.00	768.77
731.00	763.80
732.00	761.21
733.00	756.54
734.00	747.13
735.00	747.37
736.00	737.54
737.00	731.71
738.00	735.27
739.00	724.68
740.00	724.27
741.00	718.63
742.00	707.60
743.00	707.00
744.00	700.78
745.00	700.19
746.00	687.15
747.00	686.51
748.00	680.83
749.00	675.47
750.00	668.55
751.00	669.76
752.00	661.56
753.00	665.19
754.00	659.66
755.00	655.96
756.00	649.38
757.00	648.71
758.00	648.99
759.00	649.80
760.00	641.20
761.00	640.26
762.00	637.62
763.00	632.53
764.00	624.12
765.00	622.16
766.00	621.99
767.00	620.56
768.00	614.12
769.00	615.30
770.00	610.68
771.00	609.22
772.00	606.62
773.00	605.93
774.00	601.65
775.00	599.23
776.00	592.83
777.00	593.43
778.00	586.55
779.00	589.40
780.00	582.44
781.00	582.62
782.00	581.63
783.00	582.21
784.00	581.77
785.00	584.74
786.00	585.06
787.00	586.81
788.00	589.46
789.00	593.63
790.00	591.76
791.00	592.90
792.00	594.87
793.00	597.43
794.00	597.20
795.00	599.51
796.00	599.03
797.00	599.85
798.00	601.95
799.00	599.92
800.00	599.30
801.00	597.92
802.00	595.96
803.00	596.55
804.00	589.87
805.00	588.13
806.00	587.47
807.00	584.57
808.00	583.00
809.00	578.64
810.00	574.50
811.00	570.25
812.00	566.97
813.00	562.75
814.00	557.79
815.00	553.57
816.00	549.27
817.00	546.28
818.00	541.00
819.00	535.03
820.00	529.31
821.00	525.71
822.00	522.22
823.00	517.56
824.00	511.52
825.00	512.08
826.00	503.80
827.00	498.51
828.00	492.91
829.00	490.54
830.00	483.15
831.00	479.73
832.00	476.48
833.00	472.64
834.00	467.28
835.00	466.26
836.00	461.15
837.00	456.02
838.00	452.29
839.00	449.39
840.00	445.12
841.00	441.46
842.00	440.08
843.00	436.07
844.00	432.12
845.00	428.62
846.00	425.03
847.00	420.37
848.00	417.94
849.00	414.91
850.00	413.80
851.00	410.00
852.00	407.11
853.00	405.36
854.00	401.00
855.00	397.43
856.00	399.40
857.00	394.37
858.00	391.70
859.00	388.39
860.00	385.74
861.00	387.33
862.00	380.98
863.00	378.36
864.00	378.08
865.00	373.95
866.00	370.78
867.00	370.61
868.00	368.40
869.00	364.06
870.00	360.82
871.00	359.10
872.00	358.00
873.00	355.37
874.00	350.68
875.00	349.70
876.00	346.84
877.00	345.56
878.00	342.68
879.00	340.61
880.00	339.25
881.00	338.28
882.00	336.31
883.00	334.26
884.00	332.85
885.00	332.38
886.00	329.91
887.00	328.27
888.00	326.71
889.00	325.73
890.00	325.22
891.00	325.65
892.00	323.88
893.00	322.76
894.00	321.38
895.00	324.10
896.00	321.16
897.00	320.07
898.00	320.84
899.00	319.56
900.00	321.14
901.00	321.17
902.00	319.91
903.00	323.83
904.00	320.16
905.00	319.60
906.00	322.59
907.00	320.72
908.00	319.49
909.00	319.08
910.00	319.06
911.00	318.23
912.00	318.71
913.00	318.25
914.00	318.02
915.00	316.22
916.00	316.15
917.00	314.92
918.00	312.91
919.00	311.94
920.00	309.34
921.00	309.57
922.00	305.69
923.00	304.45
924.00	303.00
925.00	301.14
926.00	299.28
927.00	296.40
928.00	293.24
929.00	291.81
930.00	290.11
931.00	286.59
932.00	284.28
933.00	282.75
934.00	278.98
935.00	275.66
936.00	271.35
937.00	267.61
938.00	263.86
939.00	258.53
940.00	252.90
941.00	249.82
942.00	247.87
943.00	244.06
944.00	241.57
945.00	243.69
946.00	239.19
947.00	239.49
948.00	238.64
949.00	238.77
950.00	239.72
951.00	240.10
952.00	239.69
953.00	240.60
954.00	239.67
955.00	241.59
956.00	240.59
957.00	241.13
958.00	240.79
959.00	240.60
960.00	240.41
961.00	240.07
962.00	239.91
963.00	239.76
964.00	239.59
965.00	238.28
966.00	238.15
967.00	238.83
968.00	237.74
969.00	236.64
970.00	236.32
971.00	236.67
972.00	235.53
973.00	236.93
974.00	234.99
975.00	233.44
976.00	234.37
977.00	232.27
978.00	232.45
979.00	231.87
980.00	230.06
981.00	230.24
982.00	230.50
983.00	231.15
984.00	228.47
985.00	229.41
986.00	227.96
987.00	227.69
988.00	228.24
989.00	226.53
990.00	225.22
991.00	225.91
992.00	225.06
993.00	225.21
994.00	224.88
995.00	223.89
996.00	223.72
997.00	223.49
998.00	223.16
999.00	222.95
1000.00	221.63
>>>>>End Processed Spectral Data<<<<<
