SpectraSuite Data File
++++++++++++++++++++++++++++++++++++
Date: Thu Oct 13 15:02:55 CDT 2011
User: Helimak
Dark Spectrum Present: No
Reference Spectrum Present: No
Number of Sampled Component Spectra: 1
Spectrometers: USB2G37154
Integration Time (usec): 500000 (USB2G37154)
Spectra Averaged: 1 (USB2G37154)
Boxcar Smoothing: 0 (USB2G37154)
Correct for Electrical Dark: No (USB2G37154)
Strobe/Lamp Enabled: No (USB2G37154)
Correct for Detector Non-linearity: No (USB2G37154)
Correct for Stray Light: No (USB2G37154)
Number of Pixels in Processed Spectrum: 651
>>>>>Begin Processed Spectral Data<<<<<
350.00	203.35
351.00	206.49
352.00	197.74
353.00	201.58
354.00	196.78
355.00	203.34
356.00	207.67
357.00	206.40
358.00	223.14
359.00	212.61
360.00	214.01
361.00	210.67
362.00	225.90
363.00	213.27
364.00	219.62
365.00	216.94
366.00	217.19
367.00	217.62
368.00	220.39
369.00	227.41
370.00	230.09
371.00	230.43
372.00	236.49
373.00	233.80
374.00	224.65
375.00	238.39
376.00	237.04
377.00	252.65
378.00	279.93
379.00	284.85
380.00	291.91
381.00	292.00
382.00	292.90
383.00	296.35
384.00	313.47
385.00	320.98
386.00	319.98
387.00	331.65
388.00	304.57
389.00	296.85
390.00	302.12
391.00	312.44
392.00	313.64
393.00	306.72
394.00	323.38
395.00	309.39
396.00	305.97
397.00	293.14
398.00	293.64
399.00	339.54
400.00	396.58
401.00	460.41
402.00	490.21
403.00	497.56
404.00	493.27
405.00	445.65
406.00	457.04
407.00	451.61
408.00	399.37
409.00	433.93
410.00	418.84
411.00	369.19
412.00	366.65
413.00	362.12
414.00	349.62
415.00	482.67
416.00	449.57
417.00	428.33
418.00	485.48
419.00	703.11
420.00	552.81
421.00	426.72
422.00	462.22
423.00	428.27
424.00	455.04
425.00	697.95
426.00	857.48
427.00	889.02
428.00	688.92
429.00	637.67
430.00	579.18
431.00	509.03
432.00	602.54
433.00	845.16
434.00	1438.03
435.00	886.17
436.00	639.21
437.00	596.09
438.00	498.51
439.00	599.20
440.00	533.38
441.00	542.63
442.00	850.07
443.00	576.85
444.00	444.75
445.00	401.63
446.00	390.99
447.00	431.28
448.00	433.10
449.00	449.98
450.00	495.02
451.00	506.05
452.00	519.28
453.00	558.73
454.00	726.80
455.00	661.89
456.00	685.22
457.00	726.86
458.00	884.11
459.00	715.58
460.00	1002.52
461.00	727.85
462.00	544.13
463.00	474.54
464.00	449.49
465.00	583.97
466.00	521.55
467.00	484.64
468.00	516.26
469.00	508.52
470.00	503.49
471.00	523.94
472.00	653.67
473.00	665.50
474.00	536.67
475.00	523.85
476.00	667.32
477.00	517.83
478.00	465.72
479.00	505.70
480.00	1049.52
481.00	652.20
482.00	551.53
483.00	524.84
484.00	630.87
485.00	1074.84
486.00	1094.81
487.00	1604.40
488.00	1220.17
489.00	810.52
490.00	661.25
491.00	647.22
492.00	639.04
493.00	640.76
494.00	565.10
495.00	567.29
496.00	680.50
497.00	588.18
498.00	557.81
499.00	570.69
500.00	677.88
501.00	727.17
502.00	568.05
503.00	589.86
504.00	740.00
505.00	806.29
506.00	782.03
507.00	849.67
508.00	791.77
509.00	704.36
510.00	619.63
511.00	572.88
512.00	564.73
513.00	577.83
514.00	696.92
515.00	589.09
516.00	560.73
517.00	542.36
518.00	612.89
519.00	584.98
520.00	508.91
521.00	517.06
522.00	518.84
523.00	514.37
524.00	544.34
525.00	564.45
526.00	560.13
527.00	504.64
528.00	499.71
529.00	485.65
530.00	497.62
531.00	523.55
532.00	569.81
533.00	616.27
534.00	620.89
535.00	661.09
536.00	633.54
537.00	620.34
538.00	605.75
539.00	574.98
540.00	550.60
541.00	567.31
542.00	558.41
543.00	564.19
544.00	570.43
545.00	588.84
546.00	642.15
547.00	703.57
548.00	625.77
549.00	694.44
550.00	714.57
551.00	681.66
552.00	611.08
553.00	579.35
554.00	559.71
555.00	610.63
556.00	613.90
557.00	560.03
558.00	491.33
559.00	495.95
560.00	561.62
561.00	494.49
562.00	475.31
563.00	464.87
564.00	479.69
565.00	522.90
566.00	538.22
567.00	584.30
568.00	578.07
569.00	567.04
570.00	546.64
571.00	525.64
572.00	458.28
573.00	479.32
574.00	481.44
575.00	458.62
576.00	457.71
577.00	478.94
578.00	476.37
579.00	468.61
580.00	468.78
581.00	430.88
582.00	425.55
583.00	444.80
584.00	437.98
585.00	433.34
586.00	465.92
587.00	490.06
588.00	524.31
589.00	556.62
590.00	497.05
591.00	488.84
592.00	453.77
593.00	455.47
594.00	426.09
595.00	406.83
596.00	398.38
597.00	420.05
598.00	443.33
599.00	460.20
600.00	476.12
601.00	512.71
602.00	529.05
603.00	797.78
604.00	686.08
605.00	558.11
606.00	489.51
607.00	412.97
608.00	387.25
609.00	364.92
610.00	402.46
611.00	461.52
612.00	447.56
613.00	407.48
614.00	405.22
615.00	423.14
616.00	448.03
617.00	492.93
618.00	401.96
619.00	420.24
620.00	426.19
621.00	449.69
622.00	414.07
623.00	382.29
624.00	444.79
625.00	488.60
626.00	459.89
627.00	450.52
628.00	445.31
629.00	444.86
630.00	442.50
631.00	432.40
632.00	389.14
633.00	366.63
634.00	350.93
635.00	346.07
636.00	347.15
637.00	366.11
638.00	363.12
639.00	364.90
640.00	403.34
641.00	414.13
642.00	450.77
643.00	405.88
644.00	381.39
645.00	380.98
646.00	401.06
647.00	390.89
648.00	365.45
649.00	358.32
650.00	333.21
651.00	330.33
652.00	341.12
653.00	345.63
654.00	358.27
655.00	362.12
656.00	1455.58
657.00	1088.42
658.00	583.89
659.00	365.66
660.00	335.64
661.00	310.92
662.00	285.21
663.00	285.47
664.00	361.55
665.00	340.98
666.00	302.74
667.00	305.24
668.00	333.64
669.00	325.33
670.00	312.90
671.00	297.51
672.00	311.27
673.00	313.01
674.00	309.72
675.00	398.58
676.00	402.05
677.00	314.30
678.00	294.06
679.00	281.70
680.00	274.38
681.00	283.13
682.00	287.53
683.00	278.51
684.00	293.20
685.00	283.20
686.00	270.47
687.00	329.98
688.00	311.79
689.00	306.69
690.00	284.12
691.00	289.30
692.00	296.06
693.00	298.47
694.00	352.15
695.00	332.08
696.00	421.03
697.00	714.75
698.00	418.64
699.00	338.03
700.00	316.13
701.00	315.56
702.00	304.01
703.00	382.63
704.00	357.69
705.00	315.46
706.00	302.72
707.00	551.01
708.00	372.47
709.00	298.65
710.00	270.95
711.00	277.06
712.00	271.45
713.00	264.99
714.00	269.20
715.00	310.17
716.00	290.95
717.00	268.20
718.00	251.99
719.00	247.89
720.00	264.31
721.00	276.07
722.00	275.67
723.00	278.61
724.00	284.49
725.00	329.03
726.00	275.72
727.00	317.11
728.00	345.15
729.00	290.11
730.00	263.30
731.00	263.29
732.00	263.67
733.00	253.59
734.00	248.82
735.00	258.20
736.00	289.20
737.00	325.30
738.00	441.90
739.00	603.48
740.00	357.21
741.00	273.08
742.00	247.03
743.00	251.02
744.00	264.96
745.00	266.74
746.00	230.78
747.00	236.92
748.00	241.43
749.00	253.51
750.00	425.44
751.00	1318.18
752.00	964.63
753.00	485.46
754.00	297.31
755.00	242.66
756.00	242.65
757.00	240.41
758.00	247.24
759.00	248.96
760.00	249.20
761.00	241.02
762.00	249.35
763.00	363.38
764.00	2241.68
765.00	1007.82
766.00	496.50
767.00	277.34
768.00	234.90
769.00	228.76
770.00	221.03
771.00	226.87
772.00	262.46
773.00	634.03
774.00	372.04
775.00	286.03
776.00	228.35
777.00	339.33
778.00	875.22
779.00	464.73
780.00	294.76
781.00	230.69
782.00	220.89
783.00	223.57
784.00	226.74
785.00	234.81
786.00	246.89
787.00	252.06
788.00	246.64
789.00	267.95
790.00	267.37
791.00	259.35
792.00	258.05
793.00	248.68
794.00	245.63
795.00	535.16
796.00	522.45
797.00	329.78
798.00	266.90
799.00	236.38
800.00	234.69
801.00	472.43
802.00	841.78
803.00	495.40
804.00	308.56
805.00	243.97
806.00	234.37
807.00	229.73
808.00	228.30
809.00	234.34
810.00	269.54
811.00	790.64
812.00	4030.04
813.00	2520.50
814.00	954.87
815.00	485.79
816.00	246.25
817.00	231.46
818.00	217.12
819.00	224.47
820.00	212.88
821.00	217.02
822.00	216.30
823.00	218.62
824.00	214.20
825.00	236.04
826.00	223.56
827.00	405.55
828.00	306.08
829.00	250.46
830.00	227.64
831.00	216.71
832.00	212.25
833.00	213.37
834.00	216.01
835.00	221.38
836.00	213.37
837.00	212.90
838.00	210.66
839.00	212.83
840.00	223.04
841.00	374.84
842.00	420.97
843.00	834.38
844.00	488.52
845.00	367.00
846.00	297.42
847.00	234.55
848.00	214.50
849.00	205.80
850.00	211.29
851.00	210.38
852.00	238.66
853.00	347.91
854.00	247.17
855.00	224.04
856.00	235.27
857.00	210.45
858.00	215.17
859.00	208.63
860.00	206.59
861.00	228.29
862.00	217.75
863.00	214.74
864.00	227.05
865.00	217.57
866.00	213.67
867.00	225.60
868.00	232.02
869.00	222.04
870.00	215.95
871.00	213.20
872.00	215.92
873.00	210.07
874.00	205.65
875.00	206.66
876.00	215.72
877.00	210.39
878.00	205.39
879.00	205.73
880.00	212.96
881.00	207.18
882.00	205.13
883.00	203.84
884.00	201.00
885.00	206.09
886.00	206.02
887.00	206.75
888.00	204.20
889.00	205.33
890.00	207.79
891.00	211.72
892.00	207.42
893.00	204.56
894.00	199.71
895.00	215.55
896.00	198.25
897.00	200.56
898.00	199.80
899.00	203.27
900.00	204.53
901.00	205.31
902.00	200.77
903.00	215.81
904.00	200.51
905.00	201.01
906.00	213.85
907.00	213.42
908.00	199.06
909.00	201.11
910.00	212.81
911.00	214.56
912.00	252.55
913.00	491.50
914.00	359.30
915.00	291.11
916.00	260.03
917.00	229.89
918.00	211.58
919.00	211.33
920.00	205.09
921.00	210.18
922.00	206.66
923.00	246.98
924.00	230.87
925.00	224.74
926.00	212.99
927.00	214.93
928.00	204.89
929.00	208.82
930.00	204.76
931.00	201.55
932.00	204.97
933.00	201.89
934.00	203.32
935.00	196.78
936.00	200.58
937.00	201.72
938.00	205.89
939.00	205.27
940.00	200.85
941.00	201.76
942.00	209.94
943.00	204.71
944.00	200.88
945.00	217.86
946.00	202.12
947.00	200.18
948.00	200.09
949.00	199.13
950.00	205.48
951.00	204.70
952.00	196.97
953.00	200.92
954.00	196.39
955.00	204.67
956.00	201.29
957.00	202.51
958.00	204.28
959.00	199.87
960.00	201.58
961.00	201.83
962.00	204.01
963.00	205.29
964.00	204.82
965.00	197.31
966.00	205.30
967.00	215.44
968.00	209.95
969.00	205.37
970.00	203.77
971.00	207.36
972.00	204.75
973.00	208.35
974.00	203.38
975.00	203.89
976.00	210.26
977.00	201.62
978.00	203.51
979.00	202.75
980.00	200.15
981.00	202.10
982.00	203.62
983.00	204.72
984.00	200.66
985.00	204.58
986.00	201.19
987.00	202.56
988.00	205.20
989.00	203.75
990.00	198.70
991.00	203.88
992.00	200.71
993.00	206.10
994.00	200.51
995.00	204.73
996.00	199.70
997.00	202.53
998.00	205.23
999.00	200.57
1000.00	204.16
>>>>>End Processed Spectral Data<<<<<
