SpectraSuite Data File
++++++++++++++++++++++++++++++++++++
Date: Thu Oct 13 15:02:58 CDT 2011
User: Helimak
Dark Spectrum Present: No
Reference Spectrum Present: No
Number of Sampled Component Spectra: 1
Spectrometers: USB2G37154
Integration Time (usec): 500000 (USB2G37154)
Spectra Averaged: 1 (USB2G37154)
Boxcar Smoothing: 0 (USB2G37154)
Correct for Electrical Dark: No (USB2G37154)
Strobe/Lamp Enabled: No (USB2G37154)
Correct for Detector Non-linearity: No (USB2G37154)
Correct for Stray Light: No (USB2G37154)
Number of Pixels in Processed Spectrum: 651
>>>>>Begin Processed Spectral Data<<<<<
350.00	201.83
351.00	209.98
352.00	199.58
353.00	201.83
354.00	202.93
355.00	208.56
356.00	209.30
357.00	207.03
358.00	219.93
359.00	212.45
360.00	217.73
361.00	212.53
362.00	221.64
363.00	215.73
364.00	220.32
365.00	214.82
366.00	219.89
367.00	219.76
368.00	218.70
369.00	232.19
370.00	232.97
371.00	229.80
372.00	236.07
373.00	230.86
374.00	228.44
375.00	240.36
376.00	234.88
377.00	258.13
378.00	275.09
379.00	292.28
380.00	301.51
381.00	297.01
382.00	296.21
383.00	293.84
384.00	319.76
385.00	324.62
386.00	327.92
387.00	327.75
388.00	314.95
389.00	294.39
390.00	307.55
391.00	312.72
392.00	316.50
393.00	314.15
394.00	327.76
395.00	307.56
396.00	303.01
397.00	296.38
398.00	291.55
399.00	345.48
400.00	400.08
401.00	462.90
402.00	497.63
403.00	510.01
404.00	493.20
405.00	446.22
406.00	457.05
407.00	452.78
408.00	396.98
409.00	438.59
410.00	428.67
411.00	370.91
412.00	367.03
413.00	362.92
414.00	360.25
415.00	483.04
416.00	443.34
417.00	432.14
418.00	489.12
419.00	696.38
420.00	558.89
421.00	421.85
422.00	474.50
423.00	428.48
424.00	464.75
425.00	706.76
426.00	871.51
427.00	877.09
428.00	702.76
429.00	639.34
430.00	582.20
431.00	502.35
432.00	592.23
433.00	841.80
434.00	1471.60
435.00	885.93
436.00	622.34
437.00	592.36
438.00	512.41
439.00	603.31
440.00	543.61
441.00	546.88
442.00	895.00
443.00	585.60
444.00	441.48
445.00	390.98
446.00	394.84
447.00	443.72
448.00	429.91
449.00	452.07
450.00	497.32
451.00	510.73
452.00	509.85
453.00	577.23
454.00	738.72
455.00	668.41
456.00	692.99
457.00	754.83
458.00	899.23
459.00	728.35
460.00	1020.88
461.00	726.62
462.00	553.17
463.00	480.97
464.00	469.76
465.00	591.16
466.00	527.19
467.00	488.33
468.00	513.21
469.00	526.96
470.00	512.41
471.00	540.93
472.00	662.43
473.00	682.14
474.00	539.70
475.00	508.83
476.00	678.08
477.00	524.85
478.00	467.23
479.00	492.11
480.00	1075.38
481.00	673.73
482.00	559.21
483.00	529.93
484.00	640.99
485.00	1084.82
486.00	1108.89
487.00	1633.82
488.00	1241.40
489.00	822.77
490.00	671.77
491.00	660.87
492.00	641.69
493.00	643.19
494.00	578.83
495.00	574.54
496.00	695.94
497.00	600.31
498.00	567.91
499.00	578.38
500.00	676.55
501.00	715.69
502.00	574.05
503.00	591.41
504.00	740.96
505.00	822.77
506.00	802.17
507.00	858.56
508.00	821.88
509.00	702.45
510.00	609.02
511.00	575.75
512.00	569.19
513.00	585.64
514.00	701.46
515.00	584.91
516.00	564.67
517.00	540.49
518.00	611.49
519.00	586.06
520.00	511.25
521.00	527.54
522.00	536.53
523.00	516.43
524.00	538.47
525.00	566.31
526.00	555.87
527.00	515.45
528.00	503.42
529.00	492.17
530.00	488.46
531.00	520.69
532.00	582.93
533.00	630.53
534.00	634.43
535.00	680.22
536.00	634.62
537.00	637.47
538.00	602.68
539.00	584.77
540.00	569.64
541.00	555.30
542.00	560.69
543.00	575.16
544.00	572.84
545.00	584.18
546.00	648.72
547.00	716.18
548.00	631.92
549.00	716.45
550.00	717.92
551.00	667.85
552.00	620.57
553.00	582.76
554.00	565.05
555.00	621.06
556.00	611.48
557.00	570.75
558.00	491.41
559.00	502.86
560.00	567.66
561.00	503.93
562.00	474.78
563.00	469.21
564.00	484.53
565.00	539.08
566.00	544.83
567.00	591.34
568.00	581.37
569.00	568.12
570.00	559.80
571.00	527.77
572.00	468.05
573.00	483.12
574.00	490.26
575.00	463.15
576.00	463.52
577.00	482.82
578.00	479.70
579.00	467.33
580.00	477.05
581.00	431.05
582.00	425.45
583.00	454.56
584.00	451.95
585.00	439.53
586.00	467.32
587.00	487.27
588.00	537.59
589.00	550.97
590.00	491.72
591.00	487.64
592.00	467.74
593.00	458.34
594.00	434.07
595.00	399.79
596.00	401.69
597.00	415.71
598.00	447.54
599.00	466.70
600.00	479.40
601.00	522.63
602.00	528.17
603.00	802.26
604.00	705.91
605.00	569.25
606.00	500.11
607.00	417.27
608.00	380.30
609.00	365.87
610.00	407.91
611.00	457.24
612.00	445.45
613.00	402.05
614.00	405.71
615.00	423.42
616.00	450.34
617.00	500.92
618.00	410.81
619.00	435.18
620.00	428.19
621.00	461.40
622.00	421.87
623.00	377.72
624.00	447.42
625.00	495.44
626.00	467.20
627.00	457.24
628.00	443.08
629.00	451.34
630.00	454.98
631.00	442.69
632.00	382.02
633.00	366.54
634.00	354.86
635.00	349.07
636.00	358.28
637.00	361.27
638.00	370.74
639.00	366.10
640.00	407.64
641.00	419.33
642.00	453.11
643.00	403.69
644.00	380.30
645.00	386.12
646.00	402.17
647.00	387.60
648.00	375.04
649.00	361.80
650.00	331.81
651.00	332.97
652.00	340.37
653.00	340.39
654.00	367.85
655.00	366.02
656.00	1464.38
657.00	1102.72
658.00	586.88
659.00	369.04
660.00	334.31
661.00	319.02
662.00	300.71
663.00	288.76
664.00	365.00
665.00	339.96
666.00	304.69
667.00	302.15
668.00	326.61
669.00	329.67
670.00	310.82
671.00	299.04
672.00	309.41
673.00	317.01
674.00	307.70
675.00	394.34
676.00	403.12
677.00	318.97
678.00	285.80
679.00	286.19
680.00	271.23
681.00	275.13
682.00	285.88
683.00	277.32
684.00	291.24
685.00	285.50
686.00	267.26
687.00	328.13
688.00	306.48
689.00	308.69
690.00	287.53
691.00	286.95
692.00	293.27
693.00	301.54
694.00	349.61
695.00	333.09
696.00	419.03
697.00	740.43
698.00	420.97
699.00	344.26
700.00	311.39
701.00	309.14
702.00	301.42
703.00	389.53
704.00	358.65
705.00	317.82
706.00	302.41
707.00	559.35
708.00	376.97
709.00	305.06
710.00	262.31
711.00	278.84
712.00	278.34
713.00	270.29
714.00	261.60
715.00	304.65
716.00	284.42
717.00	266.41
718.00	254.89
719.00	250.23
720.00	262.77
721.00	274.18
722.00	274.79
723.00	281.49
724.00	281.76
725.00	339.03
726.00	281.81
727.00	310.54
728.00	351.13
729.00	288.13
730.00	259.36
731.00	264.47
732.00	258.77
733.00	252.04
734.00	245.87
735.00	264.82
736.00	285.86
737.00	323.66
738.00	443.23
739.00	624.87
740.00	358.40
741.00	275.11
742.00	244.97
743.00	245.99
744.00	263.79
745.00	268.34
746.00	238.47
747.00	236.39
748.00	240.94
749.00	250.74
750.00	413.79
751.00	1316.29
752.00	964.70
753.00	495.32
754.00	298.24
755.00	246.94
756.00	238.76
757.00	241.06
758.00	252.09
759.00	254.71
760.00	245.55
761.00	238.13
762.00	254.69
763.00	363.05
764.00	2301.27
765.00	1013.71
766.00	497.55
767.00	276.01
768.00	231.63
769.00	223.95
770.00	219.58
771.00	226.06
772.00	262.66
773.00	643.74
774.00	367.12
775.00	284.32
776.00	222.75
777.00	333.93
778.00	887.23
779.00	475.50
780.00	302.52
781.00	231.11
782.00	221.02
783.00	221.29
784.00	226.78
785.00	232.74
786.00	240.36
787.00	250.92
788.00	248.95
789.00	265.91
790.00	271.13
791.00	257.54
792.00	254.72
793.00	248.98
794.00	246.00
795.00	552.39
796.00	523.47
797.00	327.37
798.00	276.75
799.00	240.71
800.00	235.02
801.00	492.99
802.00	845.99
803.00	498.80
804.00	314.65
805.00	250.32
806.00	239.02
807.00	217.88
808.00	231.91
809.00	232.79
810.00	266.18
811.00	799.39
812.00	4042.15
813.00	2546.25
814.00	961.51
815.00	490.23
816.00	240.43
817.00	218.41
818.00	214.57
819.00	221.86
820.00	212.13
821.00	211.91
822.00	218.68
823.00	213.53
824.00	213.29
825.00	241.40
826.00	224.59
827.00	409.36
828.00	310.92
829.00	250.80
830.00	230.58
831.00	220.74
832.00	211.82
833.00	215.77
834.00	215.73
835.00	220.38
836.00	215.88
837.00	213.26
838.00	210.19
839.00	214.75
840.00	216.80
841.00	370.17
842.00	423.86
843.00	829.97
844.00	493.03
845.00	373.43
846.00	296.12
847.00	234.34
848.00	214.84
849.00	208.49
850.00	206.10
851.00	203.08
852.00	232.26
853.00	345.51
854.00	247.94
855.00	234.15
856.00	238.53
857.00	211.89
858.00	215.88
859.00	208.64
860.00	208.72
861.00	224.58
862.00	214.17
863.00	219.81
864.00	222.63
865.00	218.45
866.00	217.48
867.00	228.40
868.00	230.03
869.00	219.62
870.00	215.70
871.00	216.47
872.00	217.86
873.00	209.92
874.00	207.20
875.00	207.12
876.00	205.80
877.00	210.50
878.00	211.59
879.00	204.20
880.00	208.81
881.00	206.91
882.00	202.35
883.00	203.91
884.00	204.00
885.00	206.41
886.00	203.43
887.00	205.00
888.00	203.85
889.00	205.05
890.00	207.58
891.00	212.04
892.00	208.68
893.00	204.87
894.00	202.59
895.00	215.25
896.00	200.21
897.00	203.79
898.00	201.96
899.00	201.31
900.00	206.59
901.00	204.55
902.00	200.09
903.00	216.79
904.00	200.42
905.00	201.24
906.00	213.56
907.00	210.49
908.00	205.15
909.00	204.50
910.00	214.71
911.00	213.44
912.00	258.33
913.00	485.89
914.00	358.01
915.00	293.57
916.00	258.40
917.00	231.49
918.00	209.81
919.00	207.91
920.00	207.85
921.00	210.26
922.00	208.27
923.00	245.97
924.00	232.32
925.00	222.84
926.00	212.98
927.00	209.68
928.00	205.26
929.00	202.02
930.00	206.87
931.00	203.30
932.00	202.28
933.00	201.68
934.00	201.16
935.00	201.29
936.00	203.02
937.00	197.95
938.00	202.20
939.00	206.43
940.00	197.15
941.00	197.29
942.00	209.88
943.00	201.63
944.00	199.08
945.00	212.82
946.00	197.30
947.00	204.16
948.00	199.45
949.00	201.38
950.00	201.02
951.00	202.42
952.00	196.10
953.00	203.30
954.00	199.59
955.00	206.69
956.00	202.10
957.00	207.18
958.00	202.13
959.00	206.84
960.00	201.68
961.00	199.59
962.00	199.45
963.00	203.09
964.00	200.06
965.00	202.91
966.00	204.61
967.00	215.33
968.00	217.01
969.00	207.83
970.00	208.24
971.00	206.70
972.00	201.88
973.00	211.24
974.00	204.49
975.00	204.26
976.00	205.32
977.00	202.91
978.00	201.15
979.00	204.57
980.00	200.84
981.00	198.01
982.00	205.21
983.00	212.34
984.00	201.24
985.00	201.92
986.00	202.24
987.00	204.63
988.00	201.52
989.00	201.57
990.00	200.97
991.00	204.20
992.00	198.86
993.00	200.41
994.00	203.86
995.00	199.22
996.00	202.24
997.00	202.47
998.00	200.86
999.00	204.60
1000.00	199.37
>>>>>End Processed Spectral Data<<<<<
