SpectraSuite Data File
++++++++++++++++++++++++++++++++++++
Date: Thu Oct 13 14:58:09 CDT 2011
User: Helimak
Dark Spectrum Present: No
Reference Spectrum Present: No
Number of Sampled Component Spectra: 1
Spectrometers: USB2G37154
Integration Time (usec): 200000 (USB2G37154)
Spectra Averaged: 1 (USB2G37154)
Boxcar Smoothing: 0 (USB2G37154)
Correct for Electrical Dark: No (USB2G37154)
Strobe/Lamp Enabled: No (USB2G37154)
Correct for Detector Non-linearity: No (USB2G37154)
Correct for Stray Light: No (USB2G37154)
Number of Pixels in Processed Spectrum: 651
>>>>>Begin Processed Spectral Data<<<<<
350.00	197.10
351.00	201.23
352.00	199.29
353.00	199.39
354.00	201.81
355.00	205.26
356.00	196.72
357.00	201.24
358.00	207.01
359.00	206.79
360.00	202.73
361.00	202.59
362.00	208.55
363.00	205.43
364.00	205.80
365.00	203.32
366.00	207.34
367.00	210.01
368.00	209.16
369.00	209.83
370.00	209.04
371.00	211.43
372.00	216.18
373.00	211.81
374.00	209.33
375.00	213.37
376.00	212.76
377.00	224.86
378.00	233.68
379.00	234.53
380.00	238.03
381.00	234.19
382.00	233.78
383.00	236.61
384.00	246.49
385.00	247.08
386.00	247.06
387.00	245.41
388.00	241.95
389.00	233.19
390.00	242.15
391.00	244.30
392.00	249.21
393.00	241.12
394.00	243.19
395.00	239.49
396.00	238.86
397.00	232.68
398.00	233.82
399.00	253.47
400.00	274.75
401.00	304.36
402.00	315.52
403.00	318.93
404.00	310.56
405.00	306.56
406.00	297.03
407.00	298.45
408.00	277.09
409.00	283.10
410.00	283.60
411.00	269.83
412.00	263.23
413.00	259.36
414.00	262.89
415.00	314.93
416.00	293.54
417.00	289.85
418.00	318.69
419.00	395.40
420.00	342.10
421.00	285.73
422.00	302.06
423.00	290.08
424.00	300.12
425.00	394.79
426.00	452.00
427.00	468.53
428.00	388.40
429.00	372.61
430.00	343.67
431.00	321.39
432.00	363.01
433.00	452.07
434.00	678.75
435.00	459.60
436.00	366.95
437.00	353.56
438.00	317.28
439.00	357.84
440.00	340.78
441.00	335.66
442.00	460.03
443.00	348.48
444.00	292.53
445.00	272.94
446.00	278.44
447.00	294.26
448.00	291.78
449.00	298.96
450.00	321.82
451.00	322.14
452.00	322.41
453.00	344.64
454.00	407.97
455.00	382.14
456.00	391.78
457.00	412.51
458.00	460.31
459.00	403.13
460.00	505.02
461.00	408.33
462.00	341.03
463.00	307.35
464.00	309.83
465.00	350.95
466.00	325.47
467.00	305.68
468.00	320.83
469.00	309.03
470.00	319.54
471.00	329.63
472.00	376.40
473.00	385.88
474.00	338.87
475.00	322.33
476.00	385.54
477.00	330.16
478.00	309.81
479.00	318.10
480.00	524.35
481.00	374.07
482.00	342.13
483.00	335.60
484.00	371.38
485.00	528.16
486.00	553.11
487.00	735.53
488.00	604.66
489.00	439.74
490.00	380.59
491.00	376.35
492.00	370.00
493.00	373.75
494.00	346.33
495.00	346.52
496.00	387.07
497.00	357.80
498.00	334.45
499.00	342.77
500.00	384.13
501.00	406.27
502.00	351.03
503.00	348.20
504.00	406.75
505.00	431.19
506.00	423.34
507.00	451.35
508.00	424.47
509.00	394.91
510.00	363.10
511.00	349.93
512.00	348.06
513.00	350.32
514.00	398.81
515.00	346.19
516.00	343.20
517.00	335.48
518.00	361.18
519.00	351.52
520.00	316.33
521.00	324.53
522.00	323.45
523.00	320.64
524.00	325.02
525.00	346.07
526.00	342.09
527.00	327.17
528.00	316.59
529.00	310.59
530.00	323.16
531.00	324.95
532.00	340.51
533.00	359.55
534.00	371.48
535.00	384.50
536.00	369.63
537.00	362.28
538.00	354.49
539.00	353.62
540.00	339.33
541.00	340.12
542.00	341.60
543.00	344.44
544.00	347.93
545.00	351.33
546.00	366.91
547.00	395.22
548.00	365.32
549.00	396.36
550.00	401.14
551.00	380.97
552.00	364.42
553.00	353.41
554.00	344.01
555.00	359.96
556.00	364.56
557.00	340.04
558.00	313.49
559.00	313.42
560.00	338.55
561.00	316.39
562.00	300.11
563.00	296.75
564.00	307.71
565.00	321.98
566.00	329.21
567.00	346.02
568.00	355.91
569.00	341.34
570.00	343.53
571.00	323.45
572.00	303.22
573.00	310.40
574.00	309.88
575.00	299.61
576.00	298.90
577.00	306.94
578.00	311.42
579.00	305.04
580.00	300.12
581.00	290.44
582.00	288.15
583.00	295.77
584.00	293.58
585.00	291.67
586.00	303.90
587.00	313.85
588.00	336.17
589.00	335.09
590.00	310.91
591.00	318.32
592.00	298.71
593.00	298.60
594.00	290.02
595.00	283.45
596.00	278.10
597.00	283.07
598.00	293.64
599.00	292.79
600.00	309.99
601.00	323.30
602.00	331.51
603.00	425.82
604.00	394.45
605.00	341.13
606.00	318.53
607.00	281.75
608.00	273.67
609.00	258.82
610.00	282.53
611.00	300.80
612.00	295.86
613.00	278.99
614.00	277.89
615.00	283.39
616.00	289.89
617.00	312.97
618.00	280.68
619.00	285.01
620.00	284.25
621.00	294.99
622.00	285.95
623.00	266.23
624.00	290.39
625.00	318.21
626.00	310.90
627.00	298.41
628.00	298.85
629.00	294.92
630.00	295.96
631.00	291.60
632.00	277.49
633.00	263.01
634.00	254.07
635.00	255.98
636.00	256.97
637.00	258.98
638.00	264.08
639.00	262.47
640.00	281.11
641.00	284.95
642.00	300.03
643.00	284.79
644.00	271.48
645.00	272.03
646.00	276.96
647.00	272.06
648.00	269.66
649.00	259.53
650.00	255.94
651.00	250.93
652.00	251.74
653.00	257.03
654.00	263.34
655.00	264.67
656.00	665.94
657.00	524.34
658.00	349.96
659.00	264.77
660.00	248.70
661.00	244.59
662.00	234.92
663.00	232.86
664.00	263.15
665.00	253.28
666.00	240.42
667.00	243.51
668.00	247.87
669.00	251.50
670.00	238.92
671.00	240.06
672.00	243.79
673.00	246.99
674.00	238.24
675.00	277.61
676.00	277.31
677.00	236.67
678.00	234.69
679.00	228.88
680.00	222.48
681.00	230.31
682.00	232.86
683.00	231.74
684.00	233.36
685.00	233.84
686.00	222.78
687.00	249.00
688.00	244.23
689.00	240.74
690.00	231.73
691.00	233.54
692.00	234.52
693.00	235.33
694.00	256.50
695.00	254.88
696.00	285.01
697.00	409.75
698.00	286.89
699.00	257.42
700.00	240.43
701.00	234.95
702.00	240.95
703.00	267.88
704.00	260.38
705.00	242.81
706.00	243.79
707.00	339.35
708.00	265.66
709.00	241.60
710.00	224.53
711.00	236.36
712.00	229.78
713.00	223.15
714.00	225.55
715.00	240.76
716.00	233.73
717.00	223.47
718.00	219.27
719.00	216.27
720.00	222.59
721.00	228.82
722.00	229.04
723.00	228.02
724.00	234.15
725.00	245.50
726.00	227.90
727.00	243.59
728.00	252.76
729.00	231.75
730.00	223.66
731.00	224.37
732.00	220.91
733.00	215.76
734.00	216.46
735.00	221.99
736.00	237.21
737.00	246.70
738.00	292.66
739.00	365.33
740.00	257.84
741.00	222.14
742.00	216.99
743.00	220.01
744.00	219.84
745.00	226.11
746.00	208.76
747.00	212.24
748.00	212.48
749.00	215.78
750.00	283.56
751.00	625.15
752.00	509.20
753.00	312.43
754.00	236.39
755.00	213.99
756.00	218.11
757.00	212.91
758.00	215.35
759.00	219.96
760.00	217.21
761.00	217.76
762.00	213.58
763.00	259.07
764.00	1008.47
765.00	519.96
766.00	311.95
767.00	224.50
768.00	213.50
769.00	211.49
770.00	210.33
771.00	205.51
772.00	225.61
773.00	368.33
774.00	262.52
775.00	233.05
776.00	210.13
777.00	251.50
778.00	463.10
779.00	304.21
780.00	240.99
781.00	209.72
782.00	210.16
783.00	208.36
784.00	211.58
785.00	214.96
786.00	214.77
787.00	216.53
788.00	218.03
789.00	226.99
790.00	226.91
791.00	223.43
792.00	220.53
793.00	213.68
794.00	214.69
795.00	335.73
796.00	322.10
797.00	247.69
798.00	229.87
799.00	213.89
800.00	211.94
801.00	318.36
802.00	451.96
803.00	317.91
804.00	245.60
805.00	216.41
806.00	213.08
807.00	202.87
808.00	214.07
809.00	211.15
810.00	221.40
811.00	421.43
812.00	1901.78
813.00	1059.37
814.00	498.17
815.00	315.67
816.00	209.85
817.00	213.77
818.00	202.21
819.00	205.09
820.00	202.02
821.00	200.01
822.00	208.65
823.00	204.11
824.00	206.17
825.00	218.48
826.00	206.72
827.00	284.33
828.00	235.28
829.00	221.15
830.00	207.82
831.00	204.28
832.00	203.41
833.00	205.41
834.00	203.82
835.00	206.25
836.00	204.24
837.00	204.87
838.00	203.96
839.00	206.00
840.00	201.97
841.00	269.20
842.00	285.28
843.00	449.68
844.00	314.82
845.00	264.05
846.00	238.88
847.00	209.66
848.00	205.99
849.00	202.11
850.00	203.00
851.00	205.18
852.00	213.17
853.00	256.84
854.00	216.28
855.00	210.16
856.00	212.20
857.00	199.96
858.00	206.19
859.00	205.35
860.00	203.30
861.00	205.94
862.00	206.02
863.00	201.55
864.00	201.76
865.00	205.71
866.00	202.86
867.00	209.13
868.00	210.09
869.00	205.95
870.00	208.87
871.00	203.87
872.00	204.13
873.00	204.03
874.00	200.63
875.00	205.52
876.00	204.07
877.00	199.32
878.00	201.91
879.00	202.42
880.00	200.95
881.00	199.20
882.00	201.90
883.00	199.73
884.00	200.99
885.00	199.66
886.00	201.25
887.00	201.69
888.00	202.18
889.00	202.47
890.00	200.16
891.00	208.02
892.00	201.89
893.00	201.90
894.00	201.05
895.00	201.00
896.00	203.25
897.00	196.28
898.00	199.03
899.00	202.03
900.00	202.51
901.00	199.47
902.00	198.23
903.00	206.29
904.00	198.84
905.00	202.13
906.00	204.65
907.00	200.68
908.00	209.53
909.00	200.39
910.00	200.17
911.00	200.70
912.00	222.53
913.00	308.75
914.00	257.57
915.00	235.35
916.00	221.67
917.00	206.30
918.00	200.26
919.00	201.45
920.00	200.26
921.00	203.66
922.00	204.42
923.00	212.99
924.00	212.15
925.00	207.41
926.00	203.99
927.00	207.08
928.00	200.79
929.00	201.99
930.00	202.54
931.00	201.24
932.00	198.03
933.00	199.07
934.00	199.38
935.00	196.87
936.00	201.36
937.00	196.86
938.00	198.28
939.00	199.43
940.00	201.68
941.00	199.40
942.00	201.92
943.00	199.02
944.00	196.87
945.00	201.63
946.00	201.53
947.00	201.06
948.00	198.03
949.00	199.42
950.00	197.77
951.00	202.63
952.00	197.02
953.00	203.45
954.00	200.93
955.00	203.12
956.00	200.99
957.00	195.93
958.00	201.07
959.00	197.94
960.00	202.17
961.00	197.13
962.00	201.56
963.00	204.72
964.00	198.73
965.00	195.06
966.00	200.53
967.00	201.87
968.00	202.00
969.00	199.11
970.00	198.62
971.00	201.26
972.00	199.92
973.00	202.13
974.00	200.41
975.00	199.97
976.00	204.17
977.00	199.42
978.00	199.03
979.00	200.14
980.00	198.02
981.00	197.89
982.00	201.63
983.00	204.07
984.00	196.13
985.00	199.77
986.00	197.33
987.00	196.75
988.00	194.56
989.00	198.32
990.00	197.38
991.00	200.91
992.00	199.02
993.00	198.87
994.00	197.45
995.00	196.98
996.00	199.69
997.00	199.91
998.00	196.67
999.00	195.60
1000.00	194.96
>>>>>End Processed Spectral Data<<<<<
