SpectraSuite Data File
++++++++++++++++++++++++++++++++++++
Date: Thu Oct 13 14:58:09 CDT 2011
User: Helimak
Dark Spectrum Present: No
Reference Spectrum Present: No
Number of Sampled Component Spectra: 1
Spectrometers: USB2G37154
Integration Time (usec): 200000 (USB2G37154)
Spectra Averaged: 1 (USB2G37154)
Boxcar Smoothing: 0 (USB2G37154)
Correct for Electrical Dark: No (USB2G37154)
Strobe/Lamp Enabled: No (USB2G37154)
Correct for Detector Non-linearity: No (USB2G37154)
Correct for Stray Light: No (USB2G37154)
Number of Pixels in Processed Spectrum: 651
>>>>>Begin Processed Spectral Data<<<<<
350.00	198.05
351.00	197.35
352.00	195.99
353.00	196.32
354.00	200.47
355.00	198.37
356.00	202.95
357.00	199.51
358.00	210.74
359.00	201.87
360.00	204.92
361.00	201.93
362.00	209.26
363.00	204.58
364.00	206.37
365.00	208.36
366.00	203.56
367.00	206.87
368.00	207.41
369.00	209.95
370.00	207.04
371.00	206.08
372.00	212.53
373.00	209.12
374.00	211.67
375.00	218.81
376.00	215.88
377.00	222.62
378.00	227.67
379.00	231.33
380.00	236.16
381.00	231.01
382.00	237.41
383.00	233.85
384.00	242.12
385.00	252.92
386.00	243.98
387.00	246.26
388.00	241.79
389.00	235.62
390.00	237.34
391.00	241.66
392.00	240.62
393.00	238.66
394.00	248.64
395.00	246.21
396.00	236.00
397.00	238.49
398.00	238.07
399.00	255.50
400.00	273.61
401.00	304.31
402.00	316.16
403.00	322.58
404.00	314.50
405.00	296.54
406.00	300.02
407.00	302.17
408.00	279.12
409.00	294.62
410.00	294.24
411.00	270.02
412.00	267.92
413.00	259.11
414.00	254.88
415.00	310.72
416.00	295.11
417.00	296.15
418.00	314.68
419.00	403.17
420.00	337.40
421.00	287.37
422.00	311.53
423.00	285.32
424.00	302.13
425.00	399.04
426.00	462.51
427.00	462.74
428.00	388.38
429.00	378.90
430.00	344.34
431.00	317.54
432.00	361.66
433.00	460.25
434.00	693.49
435.00	472.27
436.00	369.48
437.00	361.45
438.00	322.05
439.00	359.47
440.00	338.20
441.00	343.94
442.00	465.82
443.00	352.41
444.00	294.39
445.00	277.16
446.00	274.59
447.00	296.68
448.00	303.37
449.00	291.01
450.00	311.79
451.00	320.86
452.00	325.21
453.00	342.43
454.00	408.84
455.00	379.92
456.00	388.90
457.00	419.25
458.00	464.82
459.00	395.87
460.00	518.94
461.00	411.96
462.00	341.94
463.00	316.97
464.00	307.48
465.00	354.67
466.00	324.71
467.00	312.38
468.00	317.64
469.00	325.04
470.00	319.93
471.00	331.33
472.00	383.00
473.00	386.38
474.00	332.13
475.00	325.27
476.00	383.86
477.00	323.37
478.00	310.93
479.00	322.11
480.00	536.30
481.00	383.91
482.00	339.48
483.00	330.23
484.00	367.83
485.00	530.26
486.00	547.29
487.00	756.02
488.00	601.03
489.00	430.59
490.00	377.89
491.00	381.12
492.00	377.28
493.00	375.49
494.00	348.85
495.00	355.00
496.00	398.57
497.00	358.37
498.00	345.00
499.00	347.28
500.00	382.78
501.00	415.34
502.00	356.02
503.00	345.01
504.00	413.41
505.00	431.28
506.00	426.73
507.00	449.09
508.00	437.34
509.00	396.84
510.00	367.93
511.00	352.06
512.00	344.38
513.00	356.32
514.00	398.53
515.00	356.09
516.00	341.89
517.00	335.09
518.00	371.99
519.00	349.92
520.00	320.60
521.00	323.43
522.00	324.93
523.00	325.13
524.00	330.79
525.00	340.24
526.00	337.88
527.00	324.39
528.00	322.55
529.00	322.34
530.00	313.40
531.00	326.47
532.00	352.24
533.00	359.76
534.00	366.39
535.00	386.62
536.00	365.44
537.00	367.32
538.00	350.52
539.00	346.62
540.00	342.58
541.00	338.64
542.00	346.88
543.00	344.64
544.00	346.28
545.00	358.90
546.00	373.71
547.00	404.25
548.00	363.42
549.00	396.44
550.00	401.04
551.00	374.93
552.00	360.89
553.00	351.98
554.00	349.55
555.00	369.16
556.00	368.21
557.00	344.51
558.00	311.90
559.00	311.50
560.00	335.35
561.00	318.76
562.00	300.85
563.00	300.16
564.00	309.73
565.00	332.89
566.00	333.79
567.00	343.38
568.00	347.99
569.00	341.41
570.00	340.82
571.00	330.41
572.00	305.76
573.00	309.74
574.00	310.73
575.00	303.90
576.00	300.97
577.00	311.82
578.00	308.50
579.00	305.67
580.00	304.51
581.00	291.78
582.00	284.68
583.00	293.84
584.00	296.18
585.00	289.55
586.00	301.28
587.00	305.15
588.00	328.51
589.00	331.50
590.00	309.66
591.00	312.28
592.00	300.10
593.00	297.68
594.00	293.98
595.00	276.49
596.00	276.47
597.00	282.04
598.00	295.00
599.00	304.63
600.00	307.16
601.00	326.18
602.00	324.99
603.00	432.92
604.00	390.93
605.00	342.43
606.00	321.75
607.00	280.33
608.00	272.81
609.00	271.03
610.00	283.02
611.00	306.40
612.00	295.72
613.00	281.07
614.00	277.52
615.00	284.21
616.00	293.75
617.00	316.03
618.00	284.30
619.00	292.82
620.00	287.48
621.00	297.56
622.00	283.11
623.00	270.11
624.00	294.54
625.00	311.77
626.00	302.06
627.00	292.16
628.00	296.27
629.00	294.53
630.00	301.11
631.00	292.06
632.00	275.51
633.00	259.92
634.00	257.02
635.00	262.04
636.00	259.76
637.00	269.28
638.00	265.83
639.00	266.54
640.00	273.11
641.00	286.25
642.00	295.00
643.00	279.29
644.00	267.33
645.00	272.21
646.00	284.04
647.00	271.15
648.00	267.93
649.00	260.52
650.00	255.00
651.00	250.86
652.00	251.59
653.00	256.97
654.00	260.98
655.00	257.71
656.00	680.69
657.00	544.14
658.00	343.96
659.00	269.71
660.00	252.74
661.00	241.98
662.00	235.12
663.00	234.91
664.00	264.53
665.00	250.74
666.00	239.69
667.00	238.71
668.00	255.41
669.00	247.52
670.00	243.15
671.00	242.00
672.00	234.57
673.00	242.04
674.00	244.26
675.00	271.95
676.00	278.07
677.00	246.26
678.00	240.62
679.00	233.52
680.00	229.94
681.00	232.15
682.00	234.41
683.00	225.97
684.00	234.95
685.00	229.01
686.00	226.44
687.00	250.31
688.00	239.79
689.00	239.12
690.00	232.65
691.00	232.84
692.00	238.73
693.00	235.76
694.00	262.38
695.00	249.10
696.00	288.01
697.00	409.96
698.00	289.06
699.00	257.02
700.00	245.39
701.00	241.18
702.00	238.32
703.00	270.23
704.00	257.91
705.00	240.66
706.00	234.18
707.00	343.79
708.00	267.62
709.00	240.32
710.00	222.28
711.00	225.19
712.00	231.40
713.00	227.33
714.00	226.57
715.00	241.46
716.00	231.23
717.00	228.41
718.00	220.08
719.00	219.38
720.00	217.61
721.00	227.29
722.00	224.11
723.00	231.14
724.00	226.64
725.00	247.63
726.00	228.41
727.00	242.06
728.00	256.96
729.00	238.05
730.00	224.73
731.00	218.35
732.00	220.46
733.00	219.52
734.00	214.03
735.00	224.75
736.00	234.85
737.00	245.05
738.00	297.19
739.00	371.47
740.00	261.35
741.00	220.01
742.00	222.99
743.00	218.98
744.00	222.17
745.00	227.71
746.00	214.77
747.00	212.38
748.00	212.61
749.00	215.77
750.00	286.84
751.00	629.30
752.00	502.49
753.00	312.71
754.00	234.58
755.00	215.76
756.00	212.19
757.00	217.97
758.00	214.28
759.00	221.91
760.00	216.66
761.00	217.47
762.00	217.22
763.00	259.66
764.00	1006.55
765.00	520.50
766.00	315.50
767.00	231.75
768.00	207.37
769.00	207.31
770.00	204.33
771.00	206.94
772.00	224.65
773.00	376.94
774.00	264.34
775.00	232.34
776.00	210.28
777.00	250.38
778.00	466.07
779.00	303.29
780.00	237.90
781.00	212.27
782.00	210.97
783.00	205.81
784.00	213.59
785.00	214.35
786.00	215.48
787.00	219.97
788.00	216.01
789.00	225.98
790.00	222.06
791.00	223.71
792.00	217.20
793.00	216.31
794.00	211.02
795.00	332.02
796.00	334.99
797.00	252.57
798.00	225.41
799.00	212.68
800.00	211.76
801.00	311.98
802.00	455.81
803.00	315.34
804.00	248.65
805.00	218.44
806.00	207.00
807.00	207.91
808.00	208.68
809.00	215.82
810.00	225.46
811.00	426.62
812.00	1941.88
813.00	1083.71
814.00	504.01
815.00	311.01
816.00	219.29
817.00	214.23
818.00	204.75
819.00	204.92
820.00	208.83
821.00	201.04
822.00	206.92
823.00	205.50
824.00	204.78
825.00	217.00
826.00	204.78
827.00	286.54
828.00	237.93
829.00	216.89
830.00	212.85
831.00	206.34
832.00	206.00
833.00	204.30
834.00	203.32
835.00	206.13
836.00	203.03
837.00	200.71
838.00	200.34
839.00	202.90
840.00	208.30
841.00	265.80
842.00	288.15
843.00	447.93
844.00	313.45
845.00	268.75
846.00	241.06
847.00	214.89
848.00	202.05
849.00	200.93
850.00	204.10
851.00	201.92
852.00	213.13
853.00	260.03
854.00	217.98
855.00	211.50
856.00	216.44
857.00	199.60
858.00	209.10
859.00	205.22
860.00	198.01
861.00	208.05
862.00	203.80
863.00	204.63
864.00	208.95
865.00	214.42
866.00	201.96
867.00	211.82
868.00	212.02
869.00	203.61
870.00	202.57
871.00	204.21
872.00	209.61
873.00	204.95
874.00	200.49
875.00	202.32
876.00	202.16
877.00	205.48
878.00	198.43
879.00	204.55
880.00	197.92
881.00	199.83
882.00	200.24
883.00	200.99
884.00	200.00
885.00	201.24
886.00	199.98
887.00	199.89
888.00	199.35
889.00	196.60
890.00	204.71
891.00	203.32
892.00	201.83
893.00	199.47
894.00	201.62
895.00	204.80
896.00	199.86
897.00	195.90
898.00	198.01
899.00	201.30
900.00	198.93
901.00	201.46
902.00	195.46
903.00	207.31
904.00	197.09
905.00	199.96
906.00	202.76
907.00	195.99
908.00	199.57
909.00	199.97
910.00	205.49
911.00	199.69
912.00	215.86
913.00	321.89
914.00	263.44
915.00	235.95
916.00	222.72
917.00	209.14
918.00	201.52
919.00	202.76
920.00	206.11
921.00	206.63
922.00	200.33
923.00	214.02
924.00	210.83
925.00	208.35
926.00	206.00
927.00	206.78
928.00	200.53
929.00	198.50
930.00	201.77
931.00	200.51
932.00	193.18
933.00	201.00
934.00	195.95
935.00	199.43
936.00	199.73
937.00	199.72
938.00	203.88
939.00	202.60
940.00	197.75
941.00	198.00
942.00	202.01
943.00	198.23
944.00	197.66
945.00	208.92
946.00	196.44
947.00	202.14
948.00	196.96
949.00	197.50
950.00	200.84
951.00	197.62
952.00	200.05
953.00	199.09
954.00	198.96
955.00	202.12
956.00	199.39
957.00	198.12
958.00	198.64
959.00	199.92
960.00	201.31
961.00	199.68
962.00	198.57
963.00	200.49
964.00	198.22
965.00	203.38
966.00	197.03
967.00	206.62
968.00	203.97
969.00	205.40
970.00	202.30
971.00	196.88
972.00	196.57
973.00	201.70
974.00	200.93
975.00	198.49
976.00	198.64
977.00	195.51
978.00	201.22
979.00	198.57
980.00	197.01
981.00	198.95
982.00	199.53
983.00	200.64
984.00	197.44
985.00	200.05
986.00	198.70
987.00	203.58
988.00	198.63
989.00	197.57
990.00	197.55
991.00	200.27
992.00	198.16
993.00	195.58
994.00	196.11
995.00	198.11
996.00	202.15
997.00	199.93
998.00	199.40
999.00	198.75
1000.00	200.22
>>>>>End Processed Spectral Data<<<<<
