SpectraSuite Data File
++++++++++++++++++++++++++++++++++++
Date: Thu Oct 13 15:02:54 CDT 2011
User: Helimak
Dark Spectrum Present: No
Reference Spectrum Present: No
Number of Sampled Component Spectra: 1
Spectrometers: USB2G37154
Integration Time (usec): 500000 (USB2G37154)
Spectra Averaged: 1 (USB2G37154)
Boxcar Smoothing: 0 (USB2G37154)
Correct for Electrical Dark: No (USB2G37154)
Strobe/Lamp Enabled: No (USB2G37154)
Correct for Detector Non-linearity: No (USB2G37154)
Correct for Stray Light: No (USB2G37154)
Number of Pixels in Processed Spectrum: 651
>>>>>Begin Processed Spectral Data<<<<<
350.00	201.80
351.00	203.76
352.00	203.43
353.00	204.49
354.00	203.84
355.00	207.19
356.00	208.07
357.00	203.06
358.00	217.47
359.00	212.59
360.00	216.36
361.00	211.05
362.00	227.49
363.00	218.41
364.00	219.35
365.00	219.31
366.00	220.11
367.00	215.64
368.00	228.46
369.00	228.56
370.00	225.09
371.00	230.39
372.00	235.09
373.00	225.98
374.00	229.30
375.00	236.75
376.00	235.96
377.00	254.59
378.00	280.65
379.00	285.41
380.00	300.87
381.00	293.70
382.00	293.62
383.00	295.96
384.00	315.70
385.00	322.74
386.00	325.96
387.00	336.37
388.00	305.95
389.00	293.12
390.00	302.96
391.00	313.37
392.00	312.10
393.00	316.30
394.00	314.09
395.00	304.92
396.00	304.13
397.00	292.15
398.00	293.76
399.00	342.67
400.00	400.42
401.00	459.46
402.00	489.44
403.00	510.66
404.00	498.82
405.00	441.20
406.00	463.05
407.00	467.22
408.00	400.43
409.00	435.71
410.00	439.08
411.00	368.12
412.00	369.97
413.00	356.05
414.00	358.95
415.00	479.90
416.00	447.62
417.00	428.68
418.00	493.20
419.00	692.93
420.00	556.23
421.00	418.69
422.00	469.15
423.00	430.56
424.00	465.40
425.00	705.64
426.00	854.29
427.00	881.03
428.00	697.19
429.00	635.68
430.00	574.53
431.00	512.80
432.00	595.39
433.00	841.52
434.00	1480.44
435.00	878.36
436.00	633.08
437.00	592.69
438.00	502.76
439.00	602.37
440.00	537.63
441.00	553.29
442.00	879.75
443.00	587.98
444.00	439.39
445.00	393.73
446.00	389.70
447.00	434.27
448.00	441.41
449.00	451.84
450.00	500.13
451.00	506.51
452.00	530.48
453.00	579.62
454.00	741.96
455.00	658.89
456.00	693.74
457.00	740.16
458.00	897.22
459.00	715.05
460.00	1020.13
461.00	731.14
462.00	546.62
463.00	478.15
464.00	465.23
465.00	581.30
466.00	523.33
467.00	478.38
468.00	523.67
469.00	527.75
470.00	511.96
471.00	526.49
472.00	668.24
473.00	674.48
474.00	541.58
475.00	508.15
476.00	671.79
477.00	529.67
478.00	468.64
479.00	493.63
480.00	1066.35
481.00	661.46
482.00	548.38
483.00	515.93
484.00	641.53
485.00	1063.14
486.00	1120.27
487.00	1624.15
488.00	1213.55
489.00	809.70
490.00	682.92
491.00	657.10
492.00	654.88
493.00	650.75
494.00	586.58
495.00	571.15
496.00	684.04
497.00	593.82
498.00	567.75
499.00	570.76
500.00	671.34
501.00	732.78
502.00	587.06
503.00	572.95
504.00	734.23
505.00	809.39
506.00	784.24
507.00	852.66
508.00	809.82
509.00	696.77
510.00	623.37
511.00	582.98
512.00	569.03
513.00	596.40
514.00	712.55
515.00	590.02
516.00	565.69
517.00	546.16
518.00	617.49
519.00	581.15
520.00	506.09
521.00	514.22
522.00	528.13
523.00	512.72
524.00	532.34
525.00	570.59
526.00	547.11
527.00	527.58
528.00	510.88
529.00	494.49
530.00	484.03
531.00	528.44
532.00	567.24
533.00	618.11
534.00	622.28
535.00	659.55
536.00	641.39
537.00	622.95
538.00	606.24
539.00	581.41
540.00	571.75
541.00	555.35
542.00	569.20
543.00	567.42
544.00	574.04
545.00	593.33
546.00	638.66
547.00	695.64
548.00	632.44
549.00	705.64
550.00	723.74
551.00	668.86
552.00	605.37
553.00	599.74
554.00	559.38
555.00	619.54
556.00	614.26
557.00	543.99
558.00	482.70
559.00	496.30
560.00	559.61
561.00	494.23
562.00	478.29
563.00	450.72
564.00	478.93
565.00	541.54
566.00	543.13
567.00	581.67
568.00	580.82
569.00	564.54
570.00	559.04
571.00	522.43
572.00	461.77
573.00	476.99
574.00	485.24
575.00	453.24
576.00	449.04
577.00	479.43
578.00	474.97
579.00	469.60
580.00	468.70
581.00	437.17
582.00	419.29
583.00	446.32
584.00	447.46
585.00	436.56
586.00	472.37
587.00	485.88
588.00	525.34
589.00	546.74
590.00	492.80
591.00	494.35
592.00	464.53
593.00	461.35
594.00	426.07
595.00	405.65
596.00	396.63
597.00	409.73
598.00	440.01
599.00	456.18
600.00	479.03
601.00	519.47
602.00	524.95
603.00	805.05
604.00	705.04
605.00	558.83
606.00	497.58
607.00	421.54
608.00	376.91
609.00	368.65
610.00	401.52
611.00	463.40
612.00	443.21
613.00	406.60
614.00	403.44
615.00	429.89
616.00	438.43
617.00	494.88
618.00	406.85
619.00	422.07
620.00	424.74
621.00	467.34
622.00	415.06
623.00	374.57
624.00	449.55
625.00	485.47
626.00	471.33
627.00	445.91
628.00	439.48
629.00	443.10
630.00	452.82
631.00	438.85
632.00	387.62
633.00	367.91
634.00	354.95
635.00	350.10
636.00	352.26
637.00	363.29
638.00	366.52
639.00	365.80
640.00	409.87
641.00	419.22
642.00	446.09
643.00	398.34
644.00	384.58
645.00	388.72
646.00	403.99
647.00	380.34
648.00	379.35
649.00	365.58
650.00	336.70
651.00	330.89
652.00	337.84
653.00	338.74
654.00	356.07
655.00	356.35
656.00	1442.59
657.00	1108.21
658.00	583.86
659.00	365.66
660.00	338.23
661.00	319.19
662.00	293.76
663.00	289.97
664.00	359.66
665.00	335.25
666.00	302.81
667.00	305.59
668.00	333.25
669.00	332.34
670.00	315.57
671.00	307.03
672.00	305.91
673.00	307.03
674.00	316.25
675.00	397.34
676.00	402.36
677.00	313.78
678.00	290.14
679.00	287.71
680.00	273.22
681.00	278.70
682.00	288.67
683.00	274.62
684.00	295.34
685.00	281.19
686.00	267.53
687.00	328.46
688.00	313.83
689.00	315.99
690.00	286.43
691.00	290.17
692.00	295.25
693.00	296.29
694.00	353.36
695.00	336.12
696.00	424.03
697.00	735.17
698.00	424.03
699.00	344.51
700.00	316.76
701.00	308.79
702.00	301.52
703.00	382.60
704.00	373.01
705.00	312.05
706.00	300.16
707.00	567.59
708.00	369.50
709.00	305.22
710.00	268.36
711.00	276.84
712.00	274.54
713.00	265.61
714.00	268.17
715.00	303.65
716.00	288.18
717.00	264.47
718.00	257.53
719.00	246.33
720.00	260.39
721.00	273.32
722.00	278.01
723.00	282.73
724.00	285.61
725.00	335.58
726.00	283.00
727.00	310.57
728.00	344.00
729.00	284.72
730.00	265.99
731.00	260.37
732.00	260.27
733.00	248.25
734.00	247.59
735.00	266.02
736.00	284.77
737.00	318.67
738.00	444.74
739.00	637.01
740.00	357.37
741.00	274.02
742.00	248.91
743.00	253.12
744.00	262.00
745.00	274.30
746.00	233.72
747.00	239.20
748.00	240.77
749.00	252.33
750.00	422.35
751.00	1324.33
752.00	967.64
753.00	487.44
754.00	297.64
755.00	241.95
756.00	237.90
757.00	240.68
758.00	250.30
759.00	249.17
760.00	245.90
761.00	244.56
762.00	249.93
763.00	360.76
764.00	2291.81
765.00	1016.79
766.00	489.45
767.00	279.44
768.00	230.82
769.00	228.46
770.00	225.65
771.00	221.55
772.00	258.84
773.00	639.13
774.00	365.37
775.00	283.17
776.00	225.06
777.00	331.78
778.00	912.24
779.00	470.76
780.00	305.19
781.00	229.75
782.00	213.72
783.00	216.05
784.00	227.79
785.00	234.14
786.00	240.86
787.00	252.79
788.00	244.87
789.00	264.97
790.00	261.73
791.00	262.49
792.00	255.60
793.00	246.82
794.00	245.43
795.00	536.09
796.00	522.59
797.00	334.25
798.00	273.16
799.00	238.34
800.00	231.32
801.00	492.48
802.00	840.68
803.00	492.21
804.00	321.36
805.00	248.52
806.00	240.58
807.00	221.65
808.00	231.20
809.00	235.71
810.00	269.31
811.00	796.29
812.00	4055.75
813.00	2554.36
814.00	968.26
815.00	486.06
816.00	246.44
817.00	232.01
818.00	220.13
819.00	222.96
820.00	214.80
821.00	209.85
822.00	220.27
823.00	219.20
824.00	211.97
825.00	234.93
826.00	225.22
827.00	400.78
828.00	302.57
829.00	250.91
830.00	229.96
831.00	220.23
832.00	213.89
833.00	217.38
834.00	216.56
835.00	215.12
836.00	215.74
837.00	219.08
838.00	215.86
839.00	209.89
840.00	221.38
841.00	371.47
842.00	421.94
843.00	837.40
844.00	492.11
845.00	374.87
846.00	299.76
847.00	234.09
848.00	215.03
849.00	211.29
850.00	210.14
851.00	204.78
852.00	230.83
853.00	360.61
854.00	248.33
855.00	228.60
856.00	237.90
857.00	211.61
858.00	218.46
859.00	209.40
860.00	203.22
861.00	227.00
862.00	216.00
863.00	212.05
864.00	225.90
865.00	218.27
866.00	217.39
867.00	230.03
868.00	233.04
869.00	222.40
870.00	213.89
871.00	213.66
872.00	218.91
873.00	214.65
874.00	208.30
875.00	206.29
876.00	210.06
877.00	206.25
878.00	206.91
879.00	206.42
880.00	211.12
881.00	206.37
882.00	208.72
883.00	205.80
884.00	206.99
885.00	205.19
886.00	206.48
887.00	206.54
888.00	205.43
889.00	203.15
890.00	209.43
891.00	212.14
892.00	207.74
893.00	200.48
894.00	200.74
895.00	215.46
896.00	203.65
897.00	201.59
898.00	200.86
899.00	203.03
900.00	204.67
901.00	203.73
902.00	203.40
903.00	215.11
904.00	197.47
905.00	204.21
906.00	213.40
907.00	209.07
908.00	206.14
909.00	204.42
910.00	207.41
911.00	210.12
912.00	247.02
913.00	487.47
914.00	361.05
915.00	291.69
916.00	257.43
917.00	231.88
918.00	205.60
919.00	212.54
920.00	202.32
921.00	209.87
922.00	207.60
923.00	245.95
924.00	227.02
925.00	224.67
926.00	214.98
927.00	216.41
928.00	206.90
929.00	206.72
930.00	206.19
931.00	199.05
932.00	201.97
933.00	199.70
934.00	203.56
935.00	199.09
936.00	199.88
937.00	200.11
938.00	208.22
939.00	208.45
940.00	198.31
941.00	205.26
942.00	208.97
943.00	204.04
944.00	197.45
945.00	215.24
946.00	201.10
947.00	202.11
948.00	199.98
949.00	197.22
950.00	195.66
951.00	203.21
952.00	202.01
953.00	200.07
954.00	196.03
955.00	204.50
956.00	202.36
957.00	204.87
958.00	199.58
959.00	203.87
960.00	202.29
961.00	203.76
962.00	203.96
963.00	201.98
964.00	202.17
965.00	201.97
966.00	199.22
967.00	210.33
968.00	213.03
969.00	207.50
970.00	205.98
971.00	205.76
972.00	208.37
973.00	208.82
974.00	203.80
975.00	201.10
976.00	203.91
977.00	199.48
978.00	200.11
979.00	207.30
980.00	197.97
981.00	202.43
982.00	204.82
983.00	207.32
984.00	199.13
985.00	200.29
986.00	198.95
987.00	201.58
988.00	204.51
989.00	200.84
990.00	199.73
991.00	201.79
992.00	202.76
993.00	202.68
994.00	202.59
995.00	204.33
996.00	201.19
997.00	207.30
998.00	199.99
999.00	203.17
1000.00	200.02
>>>>>End Processed Spectral Data<<<<<
