SpectraSuite Data File
++++++++++++++++++++++++++++++++++++
Date: Thu Oct 13 15:02:57 CDT 2011
User: Helimak
Dark Spectrum Present: No
Reference Spectrum Present: No
Number of Sampled Component Spectra: 1
Spectrometers: USB2G37154
Integration Time (usec): 500000 (USB2G37154)
Spectra Averaged: 1 (USB2G37154)
Boxcar Smoothing: 0 (USB2G37154)
Correct for Electrical Dark: No (USB2G37154)
Strobe/Lamp Enabled: No (USB2G37154)
Correct for Detector Non-linearity: No (USB2G37154)
Correct for Stray Light: No (USB2G37154)
Number of Pixels in Processed Spectrum: 651
>>>>>Begin Processed Spectral Data<<<<<
350.00	198.36
351.00	203.13
352.00	201.06
353.00	198.48
354.00	205.89
355.00	205.73
356.00	208.52
357.00	205.85
358.00	221.02
359.00	214.44
360.00	220.77
361.00	214.98
362.00	216.86
363.00	215.09
364.00	217.95
365.00	215.16
366.00	217.17
367.00	220.77
368.00	222.32
369.00	230.41
370.00	231.02
371.00	227.36
372.00	232.30
373.00	229.62
374.00	228.31
375.00	236.96
376.00	234.02
377.00	253.95
378.00	276.20
379.00	292.03
380.00	294.54
381.00	284.80
382.00	293.91
383.00	295.44
384.00	313.60
385.00	327.17
386.00	323.86
387.00	332.01
388.00	308.46
389.00	291.06
390.00	304.63
391.00	318.23
392.00	314.95
393.00	315.09
394.00	319.08
395.00	312.95
396.00	307.95
397.00	298.98
398.00	295.62
399.00	343.53
400.00	407.91
401.00	470.49
402.00	494.15
403.00	515.46
404.00	494.51
405.00	450.85
406.00	452.05
407.00	462.86
408.00	397.60
409.00	425.08
410.00	418.87
411.00	370.86
412.00	372.35
413.00	353.98
414.00	358.65
415.00	486.13
416.00	447.56
417.00	430.35
418.00	492.49
419.00	704.29
420.00	565.39
421.00	425.57
422.00	466.29
423.00	424.09
424.00	452.41
425.00	706.58
426.00	863.65
427.00	892.11
428.00	682.44
429.00	642.35
430.00	573.76
431.00	508.49
432.00	601.50
433.00	856.44
434.00	1464.78
435.00	896.84
436.00	634.28
437.00	597.79
438.00	514.68
439.00	607.22
440.00	546.47
441.00	551.91
442.00	889.49
443.00	589.59
444.00	437.89
445.00	405.20
446.00	395.98
447.00	443.71
448.00	436.66
449.00	454.95
450.00	505.34
451.00	509.82
452.00	518.93
453.00	574.46
454.00	736.66
455.00	671.70
456.00	683.72
457.00	744.36
458.00	897.94
459.00	732.82
460.00	1028.62
461.00	742.95
462.00	552.29
463.00	480.67
464.00	463.84
465.00	595.91
466.00	525.87
467.00	483.79
468.00	511.31
469.00	527.78
470.00	512.29
471.00	535.35
472.00	654.80
473.00	677.99
474.00	540.15
475.00	515.83
476.00	678.71
477.00	530.74
478.00	473.92
479.00	493.41
480.00	1074.86
481.00	662.46
482.00	559.55
483.00	534.18
484.00	647.02
485.00	1078.56
486.00	1120.81
487.00	1618.92
488.00	1233.21
489.00	831.62
490.00	671.17
491.00	655.98
492.00	639.16
493.00	651.54
494.00	579.76
495.00	569.10
496.00	685.63
497.00	598.48
498.00	565.78
499.00	568.97
500.00	672.12
501.00	719.30
502.00	590.05
503.00	582.00
504.00	739.82
505.00	811.34
506.00	794.36
507.00	849.91
508.00	811.91
509.00	708.89
510.00	619.09
511.00	580.92
512.00	559.86
513.00	594.12
514.00	712.46
515.00	588.10
516.00	567.02
517.00	538.39
518.00	624.56
519.00	587.43
520.00	519.71
521.00	523.00
522.00	527.22
523.00	515.07
524.00	532.61
525.00	579.21
526.00	552.23
527.00	514.21
528.00	505.82
529.00	494.14
530.00	496.80
531.00	526.81
532.00	570.95
533.00	617.83
534.00	630.96
535.00	679.31
536.00	646.46
537.00	646.67
538.00	607.77
539.00	581.12
540.00	560.18
541.00	554.66
542.00	573.26
543.00	573.12
544.00	572.14
545.00	601.30
546.00	641.57
547.00	714.22
548.00	635.40
549.00	705.78
550.00	720.77
551.00	679.92
552.00	623.63
553.00	588.25
554.00	559.10
555.00	628.64
556.00	618.73
557.00	565.77
558.00	494.42
559.00	499.51
560.00	563.36
561.00	492.73
562.00	465.48
563.00	465.56
564.00	489.76
565.00	534.17
566.00	550.07
567.00	581.39
568.00	575.74
569.00	566.63
570.00	549.86
571.00	529.97
572.00	468.98
573.00	478.87
574.00	485.72
575.00	462.71
576.00	462.10
577.00	473.24
578.00	480.55
579.00	464.33
580.00	478.38
581.00	429.67
582.00	423.27
583.00	441.55
584.00	440.16
585.00	434.16
586.00	472.04
587.00	487.10
588.00	531.34
589.00	551.79
590.00	492.27
591.00	489.64
592.00	460.84
593.00	454.78
594.00	425.08
595.00	406.42
596.00	405.64
597.00	408.03
598.00	441.52
599.00	449.95
600.00	481.67
601.00	516.99
602.00	525.38
603.00	803.80
604.00	693.34
605.00	560.22
606.00	493.58
607.00	418.63
608.00	380.19
609.00	364.93
610.00	399.85
611.00	464.47
612.00	452.00
613.00	404.43
614.00	394.72
615.00	428.77
616.00	447.38
617.00	496.98
618.00	412.77
619.00	425.15
620.00	433.30
621.00	462.51
622.00	414.91
623.00	375.52
624.00	446.84
625.00	501.95
626.00	463.43
627.00	445.61
628.00	449.84
629.00	442.75
630.00	445.53
631.00	435.19
632.00	381.70
633.00	371.54
634.00	345.43
635.00	353.99
636.00	351.09
637.00	369.37
638.00	380.63
639.00	369.70
640.00	403.05
641.00	412.07
642.00	449.48
643.00	408.06
644.00	376.86
645.00	386.14
646.00	409.02
647.00	383.07
648.00	380.07
649.00	357.73
650.00	337.29
651.00	332.63
652.00	328.86
653.00	348.71
654.00	361.74
655.00	361.29
656.00	1469.06
657.00	1106.92
658.00	589.88
659.00	364.37
660.00	337.10
661.00	313.25
662.00	293.10
663.00	289.39
664.00	362.95
665.00	337.59
666.00	308.30
667.00	298.77
668.00	329.85
669.00	332.40
670.00	313.54
671.00	300.99
672.00	310.50
673.00	315.96
674.00	305.45
675.00	398.66
676.00	404.18
677.00	308.04
678.00	291.49
679.00	291.61
680.00	272.31
681.00	274.70
682.00	287.89
683.00	278.64
684.00	282.56
685.00	283.79
686.00	268.83
687.00	334.43
688.00	313.71
689.00	310.01
690.00	290.07
691.00	288.36
692.00	295.31
693.00	299.05
694.00	345.24
695.00	336.99
696.00	416.03
697.00	744.02
698.00	429.41
699.00	340.83
700.00	316.37
701.00	307.33
702.00	308.13
703.00	381.55
704.00	357.69
705.00	310.60
706.00	302.13
707.00	559.22
708.00	372.22
709.00	301.61
710.00	267.48
711.00	280.12
712.00	275.69
713.00	269.37
714.00	273.08
715.00	303.91
716.00	284.10
717.00	265.42
718.00	253.34
719.00	251.20
720.00	256.22
721.00	278.38
722.00	269.47
723.00	278.79
724.00	279.54
725.00	328.53
726.00	279.92
727.00	310.11
728.00	345.66
729.00	292.87
730.00	266.73
731.00	258.57
732.00	261.20
733.00	249.38
734.00	246.22
735.00	260.67
736.00	291.23
737.00	317.30
738.00	446.93
739.00	630.55
740.00	356.95
741.00	274.29
742.00	249.05
743.00	243.00
744.00	260.30
745.00	278.63
746.00	232.89
747.00	237.65
748.00	241.25
749.00	249.65
750.00	424.04
751.00	1316.69
752.00	961.43
753.00	484.38
754.00	290.82
755.00	245.20
756.00	238.18
757.00	240.93
758.00	249.64
759.00	253.36
760.00	243.40
761.00	244.44
762.00	247.19
763.00	362.02
764.00	2294.56
765.00	1012.47
766.00	498.90
767.00	277.39
768.00	235.44
769.00	225.30
770.00	218.78
771.00	223.00
772.00	264.24
773.00	626.23
774.00	361.09
775.00	285.16
776.00	224.48
777.00	343.23
778.00	893.22
779.00	473.33
780.00	306.26
781.00	232.54
782.00	219.58
783.00	221.88
784.00	224.52
785.00	235.49
786.00	241.94
787.00	247.80
788.00	234.20
789.00	267.94
790.00	270.81
791.00	260.70
792.00	259.79
793.00	250.19
794.00	244.31
795.00	539.99
796.00	530.23
797.00	325.39
798.00	272.90
799.00	235.00
800.00	235.74
801.00	486.81
802.00	850.37
803.00	484.42
804.00	313.68
805.00	248.47
806.00	237.76
807.00	223.67
808.00	233.48
809.00	235.84
810.00	266.56
811.00	801.25
812.00	4036.56
813.00	2564.88
814.00	956.02
815.00	480.44
816.00	242.49
817.00	234.86
818.00	218.98
819.00	220.73
820.00	217.06
821.00	213.05
822.00	217.55
823.00	218.47
824.00	213.85
825.00	232.75
826.00	227.42
827.00	400.37
828.00	297.18
829.00	250.13
830.00	228.98
831.00	223.06
832.00	215.61
833.00	213.71
834.00	213.29
835.00	215.41
836.00	205.12
837.00	216.82
838.00	214.52
839.00	211.91
840.00	222.18
841.00	370.33
842.00	428.10
843.00	845.72
844.00	491.68
845.00	373.33
846.00	295.69
847.00	234.82
848.00	217.92
849.00	207.77
850.00	210.82
851.00	206.06
852.00	236.85
853.00	353.64
854.00	249.38
855.00	230.22
856.00	238.95
857.00	208.79
858.00	219.40
859.00	206.23
860.00	212.17
861.00	221.53
862.00	214.22
863.00	213.79
864.00	226.04
865.00	216.72
866.00	209.78
867.00	231.60
868.00	233.04
869.00	220.37
870.00	214.55
871.00	216.35
872.00	209.82
873.00	207.88
874.00	206.09
875.00	210.79
876.00	208.55
877.00	207.18
878.00	208.30
879.00	207.28
880.00	207.79
881.00	205.91
882.00	204.16
883.00	207.47
884.00	205.00
885.00	211.20
886.00	202.96
887.00	207.66
888.00	202.71
889.00	202.66
890.00	209.69
891.00	211.78
892.00	205.76
893.00	200.30
894.00	200.84
895.00	217.43
896.00	203.11
897.00	203.72
898.00	204.06
899.00	201.97
900.00	205.76
901.00	200.13
902.00	203.79
903.00	215.09
904.00	200.06
905.00	199.23
906.00	216.65
907.00	206.25
908.00	208.19
909.00	203.08
910.00	206.66
911.00	208.61
912.00	252.39
913.00	486.54
914.00	365.51
915.00	295.74
916.00	257.22
917.00	228.94
918.00	206.11
919.00	211.42
920.00	204.55
921.00	213.31
922.00	204.12
923.00	245.99
924.00	227.89
925.00	221.65
926.00	212.02
927.00	217.83
928.00	204.44
929.00	200.99
930.00	206.10
931.00	202.73
932.00	206.11
933.00	199.78
934.00	199.17
935.00	202.12
936.00	203.30
937.00	199.91
938.00	204.96
939.00	203.59
940.00	201.97
941.00	204.96
942.00	205.92
943.00	207.38
944.00	198.60
945.00	209.75
946.00	200.49
947.00	200.99
948.00	198.85
949.00	202.92
950.00	201.04
951.00	202.18
952.00	199.97
953.00	203.46
954.00	197.95
955.00	204.96
956.00	203.11
957.00	205.23
958.00	201.85
959.00	201.88
960.00	199.74
961.00	200.17
962.00	200.96
963.00	200.50
964.00	205.08
965.00	200.61
966.00	204.48
967.00	216.09
968.00	211.98
969.00	208.45
970.00	208.74
971.00	209.26
972.00	204.56
973.00	212.80
974.00	207.72
975.00	200.75
976.00	204.68
977.00	196.65
978.00	199.76
979.00	203.71
980.00	195.01
981.00	200.62
982.00	201.22
983.00	208.53
984.00	202.09
985.00	204.16
986.00	198.25
987.00	201.01
988.00	202.61
989.00	201.10
990.00	197.54
991.00	202.31
992.00	199.44
993.00	199.46
994.00	201.34
995.00	199.58
996.00	201.44
997.00	204.26
998.00	202.39
999.00	203.46
1000.00	201.05
>>>>>End Processed Spectral Data<<<<<
