SpectraSuite Data File
++++++++++++++++++++++++++++++++++++
Date: Fri Jan 27 15:56:06 CST 2012
User: Helimak
Dark Spectrum Present: No
Reference Spectrum Present: No
Number of Sampled Component Spectra: 1
Spectrometers: USB2G37154
Integration Time (usec): 150000 (USB2G37154)
Spectra Averaged: 200 (USB2G37154)
Boxcar Smoothing: 0 (USB2G37154)
Correct for Electrical Dark: No (USB2G37154)
Strobe/Lamp Enabled: No (USB2G37154)
Correct for Detector Non-linearity: No (USB2G37154)
Correct for Stray Light: No (USB2G37154)
Number of Pixels in Processed Spectrum: 651
>>>>>Begin Processed Spectral Data<<<<<
350.00	213.56
351.00	214.45
352.00	214.05
353.00	213.99
354.00	214.36
355.00	215.21
356.00	214.76
357.00	214.14
358.00	216.11
359.00	214.58
360.00	215.04
361.00	214.78
362.00	216.65
363.00	214.74
364.00	216.37
365.00	215.37
366.00	215.52
367.00	215.56
368.00	215.11
369.00	215.71
370.00	216.36
371.00	215.74
372.00	216.60
373.00	216.83
374.00	217.15
375.00	218.59
376.00	216.24
377.00	217.08
378.00	218.73
379.00	216.67
380.00	216.91
381.00	216.90
382.00	217.39
383.00	218.61
384.00	217.05
385.00	217.61
386.00	217.29
387.00	218.27
388.00	217.34
389.00	217.35
390.00	217.78
391.00	218.48
392.00	218.25
393.00	218.75
394.00	218.96
395.00	218.53
396.00	218.81
397.00	219.52
398.00	219.52
399.00	220.27
400.00	220.53
401.00	220.31
402.00	222.08
403.00	222.90
404.00	223.88
405.00	225.05
406.00	225.58
407.00	227.77
408.00	228.76
409.00	231.66
410.00	232.88
411.00	235.25
412.00	237.87
413.00	241.18
414.00	243.58
415.00	247.16
416.00	249.55
417.00	253.22
418.00	256.13
419.00	259.82
420.00	263.35
421.00	266.38
422.00	271.16
423.00	275.26
424.00	279.09
425.00	283.72
426.00	287.82
427.00	295.02
428.00	295.75
429.00	298.60
430.00	300.80
431.00	302.98
432.00	308.12
433.00	306.58
434.00	305.46
435.00	311.62
436.00	309.65
437.00	313.40
438.00	308.87
439.00	311.64
440.00	312.61
441.00	314.45
442.00	314.14
443.00	316.45
444.00	318.77
445.00	320.90
446.00	324.21
447.00	327.92
448.00	331.05
449.00	336.31
450.00	340.10
451.00	347.26
452.00	352.11
453.00	359.20
454.00	361.98
455.00	367.37
456.00	375.01
457.00	378.06
458.00	380.01
459.00	382.55
460.00	384.89
461.00	384.43
462.00	388.97
463.00	386.80
464.00	385.60
465.00	389.18
466.00	390.07
467.00	386.29
468.00	387.64
469.00	390.15
470.00	390.54
471.00	392.65
472.00	397.14
473.00	400.25
474.00	405.95
475.00	409.80
476.00	415.88
477.00	424.12
478.00	431.34
479.00	438.75
480.00	448.76
481.00	456.60
482.00	467.47
483.00	476.87
484.00	491.17
485.00	503.59
486.00	516.69
487.00	527.06
488.00	540.42
489.00	555.66
490.00	564.99
491.00	576.05
492.00	588.50
493.00	596.89
494.00	604.95
495.00	608.17
496.00	613.01
497.00	618.26
498.00	619.99
499.00	621.60
500.00	621.93
501.00	621.54
502.00	620.99
503.00	622.15
504.00	623.92
505.00	621.64
506.00	624.04
507.00	625.94
508.00	624.63
509.00	624.54
510.00	626.41
511.00	631.92
512.00	632.11
513.00	635.65
514.00	637.20
515.00	642.80
516.00	647.38
517.00	650.77
518.00	661.21
519.00	668.54
520.00	675.92
521.00	682.70
522.00	691.62
523.00	701.71
524.00	710.56
525.00	720.42
526.00	731.50
527.00	744.03
528.00	756.35
529.00	770.38
530.00	777.65
531.00	791.36
532.00	804.79
533.00	812.92
534.00	822.77
535.00	833.25
536.00	839.19
537.00	848.84
538.00	855.43
539.00	854.95
540.00	858.91
541.00	866.38
542.00	868.96
543.00	869.06
544.00	868.68
545.00	863.07
546.00	864.37
547.00	856.66
548.00	852.19
549.00	852.60
550.00	847.65
551.00	845.93
552.00	844.81
553.00	842.90
554.00	845.75
555.00	845.78
556.00	846.46
557.00	847.92
558.00	845.58
559.00	848.87
560.00	854.19
561.00	856.57
562.00	866.31
563.00	866.10
564.00	873.33
565.00	881.76
566.00	886.03
567.00	891.20
568.00	893.70
569.00	898.74
570.00	911.95
571.00	929.25
572.00	925.89
573.00	937.18
574.00	946.43
575.00	951.36
576.00	961.38
577.00	965.73
578.00	975.62
579.00	984.60
580.00	991.55
581.00	996.49
582.00	1001.71
583.00	1008.19
584.00	1014.55
585.00	1009.20
586.00	1011.70
587.00	1014.24
588.00	1013.19
589.00	1013.80
590.00	1011.36
591.00	1011.43
592.00	1008.63
593.00	1006.68
594.00	1008.71
595.00	1003.67
596.00	1001.28
597.00	997.32
598.00	994.23
599.00	995.28
600.00	996.32
601.00	991.26
602.00	986.48
603.00	990.94
604.00	989.21
605.00	985.75
606.00	989.03
607.00	989.79
608.00	989.78
609.00	989.40
610.00	987.22
611.00	1004.41
612.00	1003.09
613.00	1001.93
614.00	1002.89
615.00	1005.24
616.00	1006.97
617.00	1007.79
618.00	1012.48
619.00	1027.52
620.00	1020.37
621.00	1024.72
622.00	1027.03
623.00	1030.04
624.00	1037.39
625.00	1042.33
626.00	1043.85
627.00	1051.63
628.00	1058.65
629.00	1065.04
630.00	1064.40
631.00	1076.50
632.00	1075.13
633.00	1069.72
634.00	1077.92
635.00	1079.80
636.00	1083.50
637.00	1077.36
638.00	1083.24
639.00	1078.20
640.00	1084.93
641.00	1077.18
642.00	1072.00
643.00	1072.47
644.00	1065.11
645.00	1061.86
646.00	1056.09
647.00	1051.71
648.00	1044.64
649.00	1040.63
650.00	1032.78
651.00	1030.75
652.00	1021.41
653.00	1015.84
654.00	1009.43
655.00	1002.96
656.00	995.57
657.00	991.45
658.00	988.11
659.00	978.73
660.00	975.69
661.00	968.87
662.00	965.35
663.00	968.48
664.00	960.92
665.00	949.05
666.00	948.17
667.00	944.74
668.00	941.86
669.00	934.14
670.00	934.56
671.00	932.69
672.00	926.64
673.00	925.69
674.00	924.18
675.00	918.25
676.00	924.24
677.00	919.11
678.00	921.37
679.00	917.79
680.00	915.55
681.00	917.37
682.00	919.76
683.00	912.25
684.00	920.17
685.00	917.62
686.00	911.29
687.00	913.32
688.00	915.70
689.00	917.86
690.00	918.70
691.00	919.61
692.00	917.98
693.00	917.55
694.00	923.67
695.00	926.34
696.00	923.84
697.00	929.40
698.00	925.55
699.00	928.39
700.00	924.26
701.00	926.70
702.00	926.92
703.00	924.05
704.00	921.76
705.00	924.48
706.00	915.71
707.00	913.77
708.00	913.71
709.00	914.21
710.00	908.00
711.00	903.58
712.00	903.13
713.00	892.61
714.00	887.67
715.00	883.59
716.00	874.19
717.00	868.02
718.00	858.59
719.00	850.75
720.00	842.05
721.00	831.97
722.00	819.57
723.00	812.90
724.00	806.57
725.00	811.37
726.00	789.59
727.00	779.23
728.00	778.38
729.00	772.58
730.00	767.63
731.00	762.82
732.00	759.36
733.00	754.85
734.00	746.23
735.00	745.98
736.00	736.36
737.00	729.77
738.00	732.81
739.00	721.33
740.00	723.48
741.00	716.88
742.00	706.75
743.00	705.29
744.00	698.94
745.00	698.84
746.00	685.77
747.00	685.93
748.00	679.74
749.00	674.09
750.00	668.02
751.00	669.56
752.00	660.89
753.00	663.96
754.00	657.41
755.00	655.54
756.00	648.91
757.00	646.91
758.00	648.04
759.00	649.31
760.00	639.69
761.00	639.56
762.00	636.28
763.00	630.82
764.00	623.91
765.00	621.66
766.00	621.19
767.00	618.64
768.00	613.18
769.00	614.39
770.00	609.55
771.00	608.38
772.00	606.22
773.00	605.54
774.00	600.87
775.00	598.49
776.00	590.86
777.00	591.54
778.00	585.15
779.00	587.96
780.00	581.40
781.00	580.51
782.00	579.07
783.00	580.24
784.00	580.32
785.00	581.81
786.00	584.38
787.00	586.50
788.00	588.91
789.00	592.98
790.00	591.72
791.00	592.27
792.00	593.34
793.00	596.84
794.00	596.72
795.00	597.86
796.00	597.47
797.00	598.38
798.00	600.83
799.00	599.01
800.00	597.74
801.00	596.04
802.00	595.44
803.00	594.38
804.00	588.68
805.00	587.73
806.00	587.10
807.00	583.53
808.00	581.60
809.00	577.75
810.00	573.45
811.00	569.97
812.00	566.50
813.00	562.81
814.00	556.84
815.00	553.05
816.00	548.61
817.00	545.77
818.00	539.11
819.00	534.73
820.00	528.59
821.00	524.12
822.00	520.73
823.00	517.17
824.00	510.26
825.00	509.92
826.00	502.30
827.00	497.66
828.00	492.25
829.00	488.66
830.00	482.25
831.00	479.18
832.00	476.27
833.00	472.06
834.00	466.09
835.00	466.14
836.00	459.74
837.00	454.70
838.00	452.45
839.00	448.56
840.00	444.57
841.00	440.45
842.00	439.33
843.00	435.77
844.00	430.94
845.00	427.83
846.00	424.11
847.00	419.29
848.00	417.34
849.00	413.60
850.00	413.74
851.00	409.22
852.00	406.43
853.00	404.60
854.00	399.33
855.00	396.64
856.00	398.51
857.00	393.41
858.00	390.81
859.00	387.40
860.00	385.07
861.00	386.66
862.00	380.70
863.00	377.74
864.00	377.05
865.00	373.68
866.00	369.64
867.00	369.82
868.00	367.45
869.00	363.52
870.00	360.64
871.00	358.69
872.00	357.77
873.00	355.22
874.00	350.36
875.00	349.14
876.00	346.92
877.00	345.28
878.00	342.38
879.00	340.26
880.00	338.99
881.00	337.48
882.00	335.70
883.00	333.93
884.00	332.29
885.00	331.68
886.00	329.13
887.00	328.09
888.00	326.16
889.00	325.33
890.00	324.99
891.00	325.61
892.00	323.88
893.00	322.15
894.00	320.63
895.00	323.61
896.00	320.91
897.00	320.04
898.00	320.60
899.00	319.46
900.00	320.56
901.00	321.02
902.00	319.74
903.00	323.44
904.00	319.48
905.00	319.46
906.00	322.13
907.00	320.31
908.00	319.82
909.00	318.44
910.00	318.49
911.00	318.21
912.00	318.09
913.00	317.26
914.00	317.15
915.00	315.42
916.00	314.81
917.00	314.00
918.00	311.84
919.00	311.44
920.00	308.40
921.00	309.02
922.00	305.58
923.00	304.55
924.00	302.18
925.00	300.93
926.00	298.26
927.00	295.64
928.00	292.68
929.00	290.81
930.00	289.46
931.00	286.67
932.00	283.70
933.00	282.22
934.00	278.30
935.00	275.31
936.00	270.94
937.00	266.67
938.00	263.31
939.00	258.49
940.00	252.79
941.00	249.77
942.00	247.56
943.00	244.10
944.00	241.16
945.00	243.47
946.00	239.11
947.00	239.53
948.00	238.57
949.00	239.12
950.00	239.21
951.00	239.78
952.00	238.94
953.00	239.89
954.00	238.98
955.00	241.48
956.00	240.10
957.00	240.62
958.00	240.60
959.00	240.32
960.00	240.10
961.00	239.62
962.00	239.68
963.00	239.00
964.00	239.20
965.00	237.98
966.00	237.59
967.00	238.22
968.00	237.69
969.00	236.86
970.00	235.99
971.00	236.11
972.00	234.77
973.00	236.76
974.00	234.76
975.00	233.58
976.00	234.36
977.00	232.07
978.00	231.78
979.00	231.72
980.00	230.02
981.00	229.74
982.00	229.91
983.00	231.00
984.00	228.62
985.00	229.20
986.00	227.69
987.00	227.02
988.00	227.98
989.00	226.36
990.00	224.81
991.00	225.92
992.00	224.69
993.00	225.13
994.00	224.55
995.00	223.66
996.00	223.59
997.00	223.65
998.00	222.45
999.00	222.88
1000.00	221.47
>>>>>End Processed Spectral Data<<<<<
