SpectraSuite Data File
++++++++++++++++++++++++++++++++++++
Date: Fri Jan 27 16:04:17 CST 2012
User: Helimak
Dark Spectrum Present: No
Reference Spectrum Present: No
Number of Sampled Component Spectra: 1
Spectrometers: USB2G37154
Integration Time (usec): 150000 (USB2G37154)
Spectra Averaged: 200 (USB2G37154)
Boxcar Smoothing: 0 (USB2G37154)
Correct for Electrical Dark: No (USB2G37154)
Strobe/Lamp Enabled: No (USB2G37154)
Correct for Detector Non-linearity: No (USB2G37154)
Correct for Stray Light: No (USB2G37154)
Number of Pixels in Processed Spectrum: 651
>>>>>Begin Processed Spectral Data<<<<<
350.00	213.71
351.00	214.73
352.00	213.94
353.00	213.91
354.00	214.62
355.00	215.46
356.00	215.20
357.00	214.53
358.00	216.08
359.00	214.57
360.00	214.95
361.00	214.85
362.00	216.66
363.00	214.90
364.00	216.65
365.00	215.60
366.00	215.40
367.00	215.59
368.00	215.49
369.00	216.44
370.00	216.49
371.00	215.61
372.00	216.67
373.00	216.65
374.00	216.91
375.00	218.68
376.00	216.27
377.00	216.71
378.00	219.11
379.00	216.81
380.00	217.01
381.00	216.92
382.00	217.18
383.00	218.65
384.00	217.34
385.00	217.52
386.00	217.30
387.00	218.15
388.00	217.33
389.00	217.16
390.00	217.79
391.00	218.45
392.00	218.25
393.00	218.50
394.00	219.43
395.00	218.37
396.00	219.10
397.00	219.53
398.00	219.20
399.00	220.52
400.00	220.10
401.00	220.34
402.00	221.68
403.00	222.44
404.00	223.47
405.00	224.40
406.00	225.54
407.00	227.31
408.00	228.75
409.00	230.80
410.00	232.43
411.00	234.80
412.00	237.02
413.00	240.45
414.00	242.49
415.00	246.05
416.00	248.10
417.00	252.28
418.00	254.95
419.00	258.15
420.00	261.84
421.00	264.16
422.00	269.02
423.00	273.42
424.00	276.64
425.00	281.56
426.00	284.84
427.00	292.14
428.00	292.69
429.00	295.57
430.00	297.84
431.00	299.90
432.00	305.27
433.00	303.61
434.00	302.79
435.00	307.81
436.00	306.84
437.00	310.69
438.00	306.12
439.00	308.60
440.00	308.95
441.00	310.91
442.00	310.80
443.00	312.76
444.00	315.64
445.00	317.14
446.00	321.28
447.00	324.48
448.00	327.44
449.00	332.13
450.00	336.13
451.00	342.71
452.00	347.03
453.00	354.46
454.00	356.74
455.00	362.75
456.00	369.19
457.00	373.11
458.00	375.18
459.00	376.79
460.00	379.51
461.00	379.72
462.00	383.36
463.00	380.87
464.00	380.33
465.00	383.15
466.00	384.81
467.00	381.04
468.00	382.60
469.00	383.79
470.00	384.83
471.00	386.98
472.00	390.96
473.00	394.38
474.00	399.83
475.00	403.36
476.00	409.95
477.00	417.11
478.00	424.19
479.00	431.80
480.00	440.37
481.00	448.55
482.00	459.45
483.00	468.56
484.00	481.89
485.00	493.91
486.00	506.38
487.00	517.58
488.00	528.91
489.00	544.43
490.00	553.01
491.00	564.69
492.00	575.51
493.00	584.62
494.00	590.98
495.00	595.88
496.00	600.26
497.00	604.06
498.00	607.35
499.00	608.35
500.00	609.26
501.00	608.77
502.00	607.11
503.00	608.77
504.00	610.95
505.00	607.89
506.00	611.58
507.00	613.21
508.00	611.70
509.00	612.73
510.00	613.19
511.00	618.60
512.00	618.85
513.00	623.12
514.00	624.09
515.00	629.22
516.00	632.04
517.00	638.18
518.00	646.67
519.00	653.82
520.00	662.20
521.00	668.03
522.00	675.78
523.00	686.08
524.00	695.52
525.00	704.17
526.00	715.61
527.00	727.38
528.00	738.82
529.00	752.67
530.00	760.21
531.00	773.91
532.00	786.95
533.00	793.77
534.00	803.77
535.00	813.65
536.00	821.33
537.00	828.25
538.00	836.24
539.00	834.53
540.00	838.20
541.00	846.15
542.00	849.66
543.00	848.60
544.00	848.04
545.00	842.88
546.00	844.51
547.00	837.52
548.00	832.66
549.00	832.12
550.00	828.44
551.00	826.53
552.00	824.82
553.00	823.72
554.00	826.93
555.00	826.31
556.00	827.31
557.00	828.21
558.00	827.88
559.00	830.53
560.00	833.01
561.00	837.65
562.00	846.70
563.00	844.79
564.00	853.37
565.00	860.88
566.00	864.88
567.00	869.90
568.00	872.62
569.00	878.26
570.00	889.71
571.00	907.66
572.00	904.76
573.00	916.83
574.00	925.36
575.00	928.73
576.00	939.21
577.00	944.37
578.00	953.35
579.00	961.31
580.00	968.62
581.00	972.38
582.00	977.04
583.00	985.88
584.00	990.64
585.00	984.76
586.00	986.99
587.00	990.41
588.00	988.24
589.00	990.70
590.00	987.86
591.00	986.90
592.00	984.63
593.00	981.90
594.00	984.19
595.00	979.92
596.00	976.57
597.00	974.11
598.00	971.80
599.00	972.93
600.00	972.86
601.00	967.97
602.00	962.95
603.00	967.74
604.00	965.63
605.00	963.51
606.00	966.40
607.00	966.35
608.00	965.99
609.00	966.32
610.00	965.29
611.00	979.77
612.00	980.35
613.00	978.61
614.00	981.15
615.00	981.02
616.00	982.32
617.00	983.64
618.00	988.46
619.00	1003.59
620.00	996.24
621.00	1001.23
622.00	1003.93
623.00	1007.38
624.00	1014.42
625.00	1017.60
626.00	1019.24
627.00	1027.28
628.00	1032.74
629.00	1040.05
630.00	1039.34
631.00	1052.67
632.00	1049.24
633.00	1044.92
634.00	1053.33
635.00	1053.51
636.00	1057.06
637.00	1052.75
638.00	1056.68
639.00	1052.82
640.00	1060.20
641.00	1054.07
642.00	1045.39
643.00	1046.95
644.00	1042.31
645.00	1036.97
646.00	1031.64
647.00	1027.21
648.00	1022.46
649.00	1016.04
650.00	1010.69
651.00	1007.25
652.00	998.92
653.00	992.45
654.00	985.76
655.00	979.99
656.00	973.62
657.00	968.49
658.00	965.71
659.00	957.93
660.00	956.27
661.00	947.62
662.00	944.43
663.00	944.87
664.00	940.54
665.00	928.95
666.00	927.41
667.00	923.12
668.00	920.51
669.00	913.22
670.00	914.80
671.00	911.79
672.00	907.89
673.00	907.66
674.00	905.11
675.00	897.63
676.00	904.98
677.00	899.88
678.00	901.63
679.00	899.51
680.00	896.91
681.00	898.45
682.00	900.33
683.00	892.38
684.00	900.95
685.00	899.27
686.00	891.26
687.00	892.54
688.00	895.54
689.00	898.41
690.00	898.77
691.00	898.95
692.00	897.45
693.00	898.01
694.00	904.70
695.00	905.11
696.00	904.51
697.00	908.25
698.00	905.87
699.00	908.48
700.00	905.29
701.00	906.62
702.00	906.18
703.00	905.00
704.00	901.87
705.00	905.79
706.00	895.89
707.00	894.79
708.00	895.26
709.00	896.11
710.00	890.21
711.00	885.25
712.00	883.56
713.00	872.86
714.00	868.58
715.00	865.04
716.00	856.32
717.00	849.91
718.00	840.88
719.00	834.06
720.00	823.60
721.00	814.84
722.00	803.72
723.00	797.13
724.00	789.34
725.00	793.83
726.00	773.74
727.00	764.61
728.00	764.22
729.00	757.53
730.00	752.94
731.00	748.38
732.00	744.21
733.00	740.89
734.00	732.23
735.00	732.27
736.00	723.03
737.00	717.64
738.00	719.59
739.00	708.38
740.00	709.18
741.00	704.38
742.00	694.23
743.00	692.82
744.00	686.46
745.00	688.02
746.00	674.34
747.00	674.30
748.00	668.42
749.00	663.82
750.00	657.01
751.00	657.71
752.00	648.80
753.00	652.85
754.00	646.27
755.00	643.30
756.00	637.31
757.00	636.38
758.00	636.49
759.00	637.04
760.00	628.15
761.00	627.39
762.00	624.71
763.00	620.11
764.00	613.45
765.00	611.92
766.00	610.66
767.00	609.34
768.00	603.39
769.00	604.04
770.00	598.47
771.00	597.48
772.00	595.78
773.00	594.49
774.00	590.86
775.00	588.74
776.00	583.20
777.00	581.95
778.00	575.55
779.00	578.79
780.00	572.19
781.00	572.63
782.00	570.40
783.00	571.55
784.00	571.67
785.00	572.62
786.00	575.86
787.00	576.38
788.00	579.86
789.00	583.89
790.00	582.38
791.00	582.86
792.00	584.67
793.00	587.20
794.00	586.87
795.00	588.41
796.00	589.22
797.00	589.03
798.00	591.67
799.00	588.58
800.00	588.57
801.00	585.77
802.00	584.94
803.00	584.50
804.00	579.63
805.00	578.42
806.00	578.56
807.00	574.89
808.00	572.52
809.00	568.64
810.00	565.11
811.00	561.35
812.00	558.40
813.00	554.55
814.00	548.43
815.00	545.11
816.00	539.57
817.00	536.90
818.00	531.47
819.00	525.98
820.00	520.81
821.00	517.42
822.00	513.56
823.00	509.05
824.00	503.51
825.00	503.39
826.00	495.69
827.00	490.81
828.00	486.13
829.00	483.23
830.00	476.12
831.00	472.76
832.00	469.30
833.00	465.45
834.00	459.81
835.00	460.15
836.00	454.43
837.00	449.18
838.00	446.29
839.00	443.34
840.00	439.49
841.00	434.65
842.00	433.82
843.00	429.68
844.00	425.68
845.00	422.08
846.00	419.56
847.00	414.35
848.00	412.43
849.00	409.85
850.00	408.83
851.00	405.07
852.00	401.52
853.00	399.88
854.00	395.74
855.00	392.91
856.00	394.99
857.00	389.29
858.00	386.85
859.00	383.83
860.00	381.04
861.00	382.38
862.00	376.38
863.00	373.34
864.00	373.26
865.00	369.18
866.00	366.12
867.00	366.07
868.00	363.60
869.00	359.49
870.00	356.79
871.00	355.17
872.00	354.33
873.00	351.61
874.00	346.59
875.00	345.87
876.00	343.64
877.00	342.18
878.00	338.80
879.00	337.15
880.00	335.77
881.00	335.21
882.00	333.31
883.00	330.55
884.00	330.07
885.00	328.67
886.00	326.19
887.00	325.17
888.00	323.62
889.00	323.12
890.00	322.18
891.00	322.54
892.00	321.04
893.00	319.38
894.00	318.05
895.00	320.95
896.00	318.18
897.00	316.78
898.00	318.40
899.00	317.29
900.00	317.96
901.00	318.06
902.00	317.13
903.00	321.22
904.00	316.70
905.00	317.41
906.00	319.76
907.00	317.85
908.00	317.11
909.00	316.26
910.00	316.13
911.00	315.53
912.00	316.32
913.00	315.12
914.00	314.09
915.00	313.06
916.00	312.97
917.00	311.93
918.00	309.45
919.00	309.47
920.00	306.59
921.00	306.65
922.00	303.20
923.00	302.48
924.00	300.31
925.00	298.94
926.00	296.30
927.00	294.35
928.00	290.91
929.00	289.49
930.00	287.97
931.00	284.68
932.00	282.32
933.00	280.74
934.00	277.21
935.00	273.73
936.00	270.20
937.00	265.99
938.00	262.23
939.00	257.60
940.00	251.90
941.00	248.67
942.00	246.79
943.00	243.17
944.00	240.53
945.00	242.45
946.00	238.37
947.00	238.59
948.00	238.13
949.00	238.22
950.00	238.84
951.00	239.40
952.00	238.49
953.00	239.38
954.00	238.30
955.00	240.17
956.00	239.75
957.00	240.14
958.00	240.08
959.00	239.87
960.00	239.58
961.00	239.06
962.00	239.24
963.00	238.75
964.00	238.68
965.00	237.42
966.00	237.43
967.00	238.02
968.00	236.80
969.00	236.08
970.00	235.64
971.00	235.96
972.00	234.70
973.00	236.15
974.00	234.24
975.00	233.30
976.00	234.05
977.00	231.41
978.00	231.63
979.00	231.69
980.00	230.04
981.00	229.34
982.00	229.53
983.00	230.55
984.00	228.30
985.00	228.67
986.00	227.61
987.00	227.14
988.00	227.81
989.00	226.39
990.00	225.09
991.00	225.55
992.00	224.53
993.00	225.03
994.00	224.49
995.00	223.67
996.00	223.88
997.00	223.30
998.00	222.55
999.00	222.74
1000.00	221.25
>>>>>End Processed Spectral Data<<<<<
