SpectraSuite Data File
++++++++++++++++++++++++++++++++++++
Date: Wed Jan 25 13:06:22 CST 2012
User: Helimak
Dark Spectrum Present: No
Reference Spectrum Present: No
Number of Sampled Component Spectra: 1
Spectrometers: USB2G37154
Integration Time (usec): 200000 (USB2G37154)
Spectra Averaged: 50 (USB2G37154)
Boxcar Smoothing: 0 (USB2G37154)
Correct for Electrical Dark: No (USB2G37154)
Strobe/Lamp Enabled: No (USB2G37154)
Correct for Detector Non-linearity: No (USB2G37154)
Correct for Stray Light: No (USB2G37154)
Number of Pixels in Processed Spectrum: 651
>>>>>Begin Processed Spectral Data<<<<<
350.00	212.75
351.00	214.75
352.00	213.39
353.00	213.51
354.00	214.51
355.00	215.50
356.00	215.15
357.00	213.97
358.00	216.27
359.00	214.86
360.00	215.60
361.00	215.25
362.00	216.88
363.00	214.77
364.00	217.14
365.00	215.51
366.00	215.43
367.00	215.44
368.00	215.15
369.00	215.98
370.00	215.56
371.00	215.15
372.00	216.29
373.00	215.82
374.00	217.06
375.00	219.33
376.00	216.09
377.00	216.77
378.00	219.10
379.00	216.37
380.00	216.15
381.00	216.02
382.00	216.99
383.00	218.14
384.00	217.27
385.00	217.40
386.00	216.67
387.00	217.53
388.00	215.90
389.00	217.28
390.00	217.60
391.00	217.65
392.00	217.43
393.00	217.70
394.00	219.02
395.00	217.40
396.00	217.92
397.00	218.34
398.00	218.60
399.00	218.99
400.00	218.37
401.00	218.29
402.00	219.75
403.00	221.11
404.00	221.13
405.00	222.01
406.00	221.90
407.00	223.49
408.00	224.73
409.00	225.72
410.00	226.54
411.00	227.57
412.00	229.88
413.00	231.83
414.00	234.10
415.00	236.89
416.00	237.96
417.00	241.05
418.00	242.93
419.00	244.57
420.00	246.57
421.00	248.46
422.00	251.53
423.00	253.77
424.00	257.44
425.00	260.71
426.00	262.35
427.00	268.67
428.00	267.51
429.00	269.65
430.00	271.18
431.00	271.49
432.00	278.35
433.00	276.02
434.00	275.03
435.00	276.46
436.00	277.30
437.00	283.26
438.00	276.56
439.00	278.28
440.00	278.55
441.00	279.64
442.00	279.60
443.00	281.28
444.00	283.06
445.00	284.17
446.00	287.02
447.00	288.89
448.00	290.88
449.00	294.43
450.00	296.53
451.00	301.12
452.00	304.60
453.00	310.01
454.00	309.98
455.00	315.19
456.00	319.62
457.00	321.17
458.00	322.94
459.00	324.30
460.00	325.62
461.00	326.52
462.00	328.02
463.00	325.97
464.00	325.85
465.00	331.07
466.00	331.46
467.00	326.38
468.00	327.08
469.00	328.19
470.00	328.50
471.00	329.93
472.00	333.41
473.00	335.73
474.00	339.29
475.00	340.44
476.00	345.11
477.00	350.41
478.00	354.50
479.00	359.54
480.00	365.80
481.00	370.47
482.00	376.31
483.00	383.75
484.00	393.00
485.00	400.02
486.00	408.51
487.00	414.90
488.00	423.25
489.00	432.99
490.00	438.71
491.00	445.07
492.00	453.31
493.00	458.90
494.00	462.50
495.00	463.41
496.00	468.02
497.00	472.12
498.00	472.95
499.00	472.74
500.00	473.41
501.00	473.12
502.00	472.58
503.00	473.45
504.00	474.53
505.00	473.09
506.00	475.30
507.00	475.62
508.00	473.87
509.00	473.55
510.00	475.52
511.00	478.77
512.00	479.28
513.00	480.97
514.00	481.02
515.00	484.18
516.00	485.28
517.00	489.17
518.00	494.96
519.00	499.90
520.00	503.82
521.00	508.85
522.00	513.35
523.00	519.24
524.00	524.72
525.00	530.59
526.00	538.23
527.00	544.50
528.00	551.28
529.00	560.01
530.00	565.14
531.00	571.12
532.00	578.69
533.00	583.93
534.00	591.06
535.00	597.79
536.00	600.05
537.00	605.40
538.00	611.16
539.00	610.62
540.00	610.96
541.00	614.38
542.00	615.11
543.00	613.89
544.00	614.62
545.00	611.76
546.00	610.14
547.00	609.04
548.00	604.34
549.00	603.83
550.00	602.56
551.00	602.57
552.00	599.58
553.00	600.49
554.00	601.64
555.00	600.39
556.00	600.98
557.00	602.91
558.00	598.77
559.00	602.94
560.00	605.47
561.00	606.94
562.00	612.31
563.00	612.03
564.00	616.76
565.00	622.23
566.00	624.92
567.00	628.94
568.00	628.43
569.00	631.12
570.00	640.96
571.00	655.51
572.00	649.39
573.00	656.74
574.00	660.79
575.00	662.01
576.00	669.00
577.00	672.15
578.00	677.91
579.00	682.92
580.00	685.93
581.00	688.94
582.00	694.32
583.00	697.77
584.00	700.69
585.00	697.57
586.00	697.88
587.00	701.89
588.00	701.22
589.00	699.28
590.00	698.40
591.00	700.23
592.00	696.76
593.00	695.20
594.00	698.67
595.00	697.40
596.00	694.35
597.00	693.17
598.00	691.15
599.00	691.93
600.00	691.17
601.00	690.17
602.00	686.81
603.00	688.92
604.00	688.27
605.00	687.83
606.00	688.53
607.00	688.86
608.00	685.39
609.00	690.38
610.00	688.07
611.00	693.04
612.00	693.98
613.00	697.06
614.00	697.92
615.00	699.51
616.00	700.90
617.00	701.89
618.00	705.00
619.00	720.23
620.00	708.55
621.00	714.03
622.00	713.71
623.00	717.66
624.00	721.00
625.00	723.11
626.00	723.99
627.00	729.28
628.00	732.94
629.00	737.41
630.00	736.82
631.00	744.08
632.00	743.54
633.00	741.93
634.00	745.22
635.00	746.44
636.00	749.91
637.00	746.79
638.00	749.39
639.00	746.77
640.00	751.26
641.00	747.42
642.00	741.80
643.00	741.59
644.00	739.94
645.00	735.13
646.00	734.97
647.00	730.35
648.00	724.68
649.00	724.24
650.00	720.02
651.00	717.07
652.00	713.36
653.00	709.16
654.00	706.16
655.00	701.83
656.00	696.82
657.00	695.88
658.00	693.77
659.00	686.88
660.00	685.19
661.00	680.47
662.00	680.08
663.00	679.92
664.00	680.47
665.00	669.62
666.00	666.05
667.00	667.42
668.00	666.60
669.00	659.65
670.00	659.71
671.00	658.35
672.00	655.39
673.00	656.34
674.00	652.42
675.00	650.45
676.00	654.56
677.00	652.24
678.00	651.47
679.00	649.83
680.00	649.65
681.00	651.57
682.00	652.50
683.00	645.61
684.00	653.20
685.00	651.07
686.00	645.06
687.00	646.64
688.00	647.27
689.00	648.15
690.00	649.37
691.00	650.99
692.00	650.95
693.00	650.28
694.00	653.32
695.00	653.13
696.00	655.66
697.00	658.24
698.00	653.75
699.00	655.75
700.00	651.64
701.00	652.77
702.00	654.17
703.00	653.25
704.00	650.08
705.00	653.68
706.00	647.64
707.00	648.26
708.00	646.87
709.00	646.48
710.00	643.43
711.00	640.83
712.00	641.01
713.00	632.55
714.00	630.96
715.00	628.67
716.00	622.22
717.00	618.66
718.00	611.69
719.00	608.23
720.00	601.65
721.00	597.08
722.00	589.62
723.00	585.24
724.00	581.65
725.00	591.63
726.00	570.50
727.00	564.35
728.00	564.65
729.00	560.15
730.00	556.76
731.00	554.48
732.00	551.49
733.00	550.24
734.00	544.23
735.00	544.65
736.00	537.34
737.00	534.49
738.00	536.35
739.00	529.30
740.00	529.73
741.00	526.54
742.00	521.93
743.00	519.43
744.00	514.07
745.00	518.97
746.00	506.26
747.00	508.59
748.00	502.84
749.00	501.13
750.00	497.46
751.00	497.29
752.00	493.41
753.00	494.29
754.00	490.55
755.00	487.34
756.00	485.28
757.00	485.86
758.00	485.92
759.00	485.76
760.00	481.99
761.00	479.29
762.00	478.19
763.00	476.84
764.00	468.61
765.00	468.41
766.00	469.58
767.00	466.73
768.00	463.79
769.00	464.13
770.00	460.45
771.00	461.77
772.00	458.66
773.00	457.02
774.00	455.37
775.00	457.47
776.00	450.86
777.00	449.17
778.00	445.79
779.00	451.29
780.00	444.55
781.00	444.33
782.00	444.23
783.00	444.04
784.00	444.23
785.00	445.33
786.00	446.89
787.00	447.77
788.00	450.59
789.00	453.28
790.00	450.37
791.00	453.10
792.00	452.95
793.00	454.45
794.00	453.46
795.00	454.37
796.00	455.01
797.00	456.13
798.00	457.82
799.00	457.02
800.00	454.62
801.00	454.34
802.00	453.67
803.00	453.93
804.00	448.17
805.00	448.71
806.00	449.27
807.00	446.62
808.00	447.10
809.00	444.30
810.00	441.30
811.00	438.04
812.00	436.09
813.00	433.92
814.00	430.94
815.00	428.27
816.00	423.42
817.00	424.23
818.00	418.06
819.00	416.02
820.00	412.62
821.00	409.62
822.00	408.12
823.00	405.73
824.00	400.96
825.00	405.16
826.00	396.32
827.00	393.61
828.00	390.07
829.00	387.18
830.00	383.35
831.00	382.06
832.00	379.20
833.00	376.30
834.00	373.20
835.00	372.57
836.00	370.27
837.00	366.78
838.00	364.05
839.00	363.07
840.00	360.94
841.00	358.37
842.00	357.39
843.00	356.48
844.00	351.22
845.00	349.90
846.00	348.36
847.00	344.13
848.00	343.00
849.00	340.59
850.00	339.97
851.00	337.80
852.00	336.47
853.00	335.78
854.00	333.37
855.00	329.72
856.00	334.85
857.00	329.05
858.00	327.49
859.00	325.22
860.00	323.00
861.00	324.32
862.00	319.79
863.00	317.42
864.00	318.86
865.00	315.34
866.00	313.34
867.00	313.83
868.00	311.70
869.00	308.76
870.00	307.28
871.00	307.24
872.00	305.88
873.00	304.27
874.00	301.46
875.00	300.26
876.00	299.10
877.00	297.47
878.00	295.07
879.00	294.52
880.00	293.96
881.00	293.39
882.00	291.45
883.00	289.90
884.00	289.04
885.00	289.03
886.00	287.63
887.00	287.95
888.00	285.27
889.00	284.40
890.00	285.40
891.00	285.76
892.00	284.64
893.00	283.32
894.00	281.93
895.00	285.80
896.00	282.16
897.00	281.16
898.00	282.17
899.00	280.81
900.00	282.20
901.00	281.78
902.00	281.11
903.00	285.91
904.00	282.01
905.00	281.20
906.00	284.98
907.00	281.47
908.00	280.71
909.00	280.21
910.00	279.95
911.00	279.90
912.00	281.42
913.00	279.95
914.00	280.69
915.00	278.87
916.00	279.96
917.00	279.14
918.00	276.37
919.00	277.47
920.00	275.46
921.00	275.42
922.00	272.47
923.00	272.17
924.00	270.67
925.00	269.55
926.00	267.60
927.00	266.65
928.00	264.09
929.00	263.27
930.00	263.08
931.00	260.46
932.00	259.10
933.00	257.82
934.00	254.58
935.00	252.77
936.00	250.26
937.00	247.53
938.00	245.68
939.00	242.99
940.00	239.56
941.00	237.61
942.00	236.54
943.00	234.29
944.00	231.15
945.00	235.38
946.00	230.74
947.00	231.14
948.00	229.65
949.00	229.85
950.00	231.19
951.00	230.63
952.00	229.88
953.00	230.83
954.00	230.13
955.00	231.61
956.00	230.78
957.00	231.94
958.00	232.27
959.00	230.88
960.00	231.55
961.00	231.64
962.00	230.77
963.00	230.50
964.00	230.83
965.00	229.73
966.00	229.65
967.00	230.38
968.00	229.79
969.00	228.72
970.00	228.26
971.00	229.44
972.00	228.29
973.00	230.00
974.00	228.02
975.00	226.97
976.00	228.02
977.00	226.69
978.00	226.15
979.00	226.14
980.00	225.09
981.00	224.80
982.00	225.44
983.00	226.81
984.00	223.33
985.00	225.25
986.00	223.66
987.00	222.93
988.00	224.02
989.00	222.83
990.00	221.56
991.00	222.43
992.00	222.35
993.00	222.06
994.00	221.83
995.00	220.66
996.00	220.73
997.00	220.90
998.00	220.35
999.00	220.77
1000.00	218.84
>>>>>End Processed Spectral Data<<<<<
