SpectraSuite Data File
++++++++++++++++++++++++++++++++++++
Date: Fri Jan 27 16:51:23 CST 2012
User: Helimak
Dark Spectrum Present: No
Reference Spectrum Present: No
Number of Sampled Component Spectra: 1
Spectrometers: USB2G37154
Integration Time (usec): 150000 (USB2G37154)
Spectra Averaged: 200 (USB2G37154)
Boxcar Smoothing: 0 (USB2G37154)
Correct for Electrical Dark: No (USB2G37154)
Strobe/Lamp Enabled: No (USB2G37154)
Correct for Detector Non-linearity: No (USB2G37154)
Correct for Stray Light: No (USB2G37154)
Number of Pixels in Processed Spectrum: 651
>>>>>Begin Processed Spectral Data<<<<<
350.00	214.34
351.00	214.85
352.00	214.51
353.00	214.20
354.00	214.64
355.00	215.70
356.00	215.62
357.00	214.33
358.00	216.43
359.00	214.66
360.00	215.45
361.00	214.95
362.00	216.85
363.00	214.97
364.00	216.74
365.00	215.84
366.00	215.97
367.00	215.93
368.00	215.74
369.00	216.14
370.00	216.55
371.00	215.98
372.00	216.75
373.00	216.96
374.00	217.25
375.00	218.78
376.00	216.23
377.00	217.14
378.00	219.00
379.00	216.76
380.00	217.25
381.00	217.10
382.00	217.75
383.00	218.51
384.00	217.05
385.00	217.64
386.00	218.05
387.00	218.57
388.00	217.38
389.00	217.96
390.00	218.19
391.00	218.61
392.00	218.49
393.00	218.91
394.00	219.60
395.00	218.77
396.00	218.96
397.00	219.70
398.00	219.77
399.00	220.56
400.00	220.71
401.00	220.88
402.00	221.98
403.00	223.17
404.00	224.13
405.00	225.25
406.00	226.46
407.00	227.96
408.00	229.37
409.00	231.61
410.00	233.36
411.00	235.72
412.00	238.20
413.00	241.38
414.00	243.44
415.00	246.90
416.00	249.55
417.00	253.27
418.00	256.02
419.00	259.20
420.00	262.66
421.00	265.53
422.00	270.49
423.00	274.29
424.00	278.25
425.00	283.06
426.00	286.72
427.00	293.96
428.00	294.29
429.00	297.46
430.00	299.44
431.00	301.76
432.00	307.29
433.00	305.20
434.00	304.51
435.00	309.21
436.00	308.55
437.00	312.51
438.00	307.41
439.00	310.69
440.00	311.12
441.00	312.83
442.00	312.93
443.00	314.73
444.00	318.09
445.00	319.95
446.00	322.74
447.00	326.62
448.00	329.57
449.00	334.16
450.00	338.86
451.00	345.18
452.00	350.68
453.00	357.90
454.00	359.96
455.00	365.87
456.00	373.19
457.00	376.04
458.00	378.10
459.00	380.40
460.00	383.18
461.00	382.83
462.00	386.97
463.00	384.53
464.00	383.78
465.00	386.51
466.00	388.11
467.00	384.18
468.00	385.74
469.00	387.51
470.00	388.95
471.00	391.00
472.00	395.00
473.00	398.44
474.00	403.47
475.00	407.42
476.00	414.07
477.00	422.08
478.00	429.19
479.00	436.23
480.00	446.28
481.00	453.76
482.00	464.49
483.00	474.03
484.00	488.41
485.00	499.39
486.00	512.29
487.00	524.51
488.00	537.06
489.00	551.76
490.00	560.99
491.00	572.02
492.00	583.80
493.00	592.97
494.00	600.52
495.00	603.78
496.00	608.49
497.00	613.61
498.00	615.56
499.00	616.59
500.00	617.98
501.00	617.12
502.00	615.78
503.00	618.30
504.00	619.93
505.00	616.89
506.00	619.01
507.00	621.95
508.00	620.81
509.00	620.79
510.00	622.53
511.00	628.38
512.00	627.31
513.00	632.76
514.00	634.30
515.00	638.91
516.00	642.22
517.00	648.19
518.00	657.05
519.00	664.47
520.00	672.17
521.00	677.64
522.00	688.10
523.00	697.67
524.00	707.50
525.00	715.77
526.00	727.17
527.00	739.31
528.00	751.40
529.00	766.46
530.00	773.88
531.00	787.04
532.00	800.18
533.00	807.01
534.00	818.32
535.00	827.07
536.00	834.37
537.00	842.66
538.00	850.50
539.00	849.72
540.00	854.51
541.00	861.25
542.00	863.96
543.00	863.44
544.00	862.77
545.00	857.41
546.00	858.41
547.00	852.59
548.00	847.38
549.00	847.04
550.00	842.35
551.00	839.89
552.00	839.55
553.00	839.77
554.00	843.03
555.00	841.05
556.00	842.77
557.00	842.84
558.00	842.64
559.00	845.49
560.00	849.48
561.00	853.18
562.00	861.50
563.00	861.71
564.00	869.26
565.00	877.00
566.00	881.48
567.00	886.70
568.00	889.67
569.00	894.07
570.00	906.62
571.00	924.58
572.00	922.75
573.00	934.91
574.00	942.01
575.00	946.58
576.00	957.87
577.00	961.21
578.00	971.06
579.00	979.66
580.00	986.54
581.00	991.83
582.00	995.67
583.00	1003.48
584.00	1009.66
585.00	1003.81
586.00	1007.70
587.00	1009.78
588.00	1007.99
589.00	1009.49
590.00	1006.84
591.00	1005.46
592.00	1003.87
593.00	1002.76
594.00	1002.66
595.00	999.58
596.00	997.03
597.00	992.48
598.00	990.67
599.00	991.89
600.00	991.03
601.00	986.64
602.00	982.50
603.00	985.54
604.00	985.22
605.00	981.35
606.00	984.53
607.00	984.73
608.00	984.64
609.00	984.20
610.00	982.29
611.00	996.01
612.00	997.50
613.00	996.96
614.00	998.35
615.00	1001.50
616.00	1001.92
617.00	1002.25
618.00	1005.63
619.00	1022.17
620.00	1014.28
621.00	1019.71
622.00	1022.51
623.00	1026.88
624.00	1032.25
625.00	1036.91
626.00	1039.25
627.00	1045.86
628.00	1054.08
629.00	1061.23
630.00	1059.57
631.00	1070.80
632.00	1068.92
633.00	1064.51
634.00	1072.21
635.00	1073.70
636.00	1076.73
637.00	1072.72
638.00	1077.94
639.00	1074.07
640.00	1080.87
641.00	1073.09
642.00	1065.05
643.00	1066.69
644.00	1062.28
645.00	1057.46
646.00	1052.13
647.00	1046.80
648.00	1040.83
649.00	1035.35
650.00	1030.01
651.00	1025.34
652.00	1016.75
653.00	1010.17
654.00	1004.18
655.00	997.46
656.00	990.77
657.00	986.97
658.00	983.64
659.00	973.70
660.00	971.03
661.00	963.98
662.00	961.43
663.00	962.41
664.00	956.41
665.00	944.60
666.00	944.42
667.00	941.00
668.00	938.45
669.00	930.85
670.00	932.64
671.00	929.21
672.00	923.70
673.00	924.14
674.00	919.89
675.00	914.95
676.00	921.90
677.00	916.03
678.00	917.14
679.00	914.63
680.00	913.05
681.00	913.87
682.00	914.98
683.00	909.07
684.00	916.06
685.00	914.40
686.00	907.34
687.00	910.07
688.00	911.65
689.00	913.40
690.00	914.62
691.00	915.65
692.00	913.65
693.00	916.17
694.00	919.61
695.00	921.51
696.00	920.02
697.00	924.67
698.00	921.14
699.00	923.41
700.00	920.77
701.00	923.90
702.00	922.33
703.00	921.42
704.00	918.56
705.00	923.00
706.00	913.00
707.00	911.00
708.00	910.67
709.00	910.86
710.00	905.02
711.00	900.70
712.00	899.17
713.00	889.05
714.00	883.93
715.00	879.27
716.00	869.92
717.00	865.18
718.00	855.31
719.00	847.42
720.00	838.31
721.00	829.37
722.00	817.62
723.00	809.15
724.00	802.60
725.00	807.44
726.00	786.97
727.00	777.14
728.00	775.49
729.00	770.24
730.00	764.79
731.00	760.46
732.00	756.03
733.00	752.68
734.00	742.93
735.00	744.16
736.00	734.63
737.00	728.34
738.00	730.79
739.00	719.34
740.00	721.60
741.00	714.83
742.00	703.78
743.00	702.60
744.00	697.30
745.00	697.12
746.00	683.90
747.00	684.21
748.00	677.30
749.00	673.10
750.00	666.01
751.00	667.64
752.00	658.82
753.00	662.31
754.00	656.05
755.00	653.15
756.00	646.12
757.00	645.98
758.00	645.82
759.00	647.52
760.00	637.36
761.00	637.58
762.00	634.48
763.00	629.87
764.00	620.40
765.00	619.67
766.00	619.08
767.00	617.48
768.00	611.64
769.00	612.44
770.00	607.45
771.00	606.69
772.00	604.66
773.00	602.92
774.00	598.11
775.00	596.44
776.00	589.47
777.00	590.65
778.00	583.53
779.00	587.54
780.00	579.97
781.00	580.17
782.00	577.88
783.00	579.53
784.00	579.10
785.00	580.87
786.00	582.63
787.00	583.51
788.00	588.17
789.00	591.33
790.00	589.92
791.00	590.36
792.00	592.16
793.00	595.40
794.00	595.65
795.00	596.79
796.00	596.03
797.00	597.34
798.00	599.82
799.00	597.61
800.00	596.61
801.00	594.40
802.00	593.86
803.00	593.15
804.00	587.53
805.00	585.82
806.00	585.07
807.00	582.55
808.00	581.18
809.00	576.30
810.00	572.46
811.00	568.01
812.00	564.79
813.00	560.71
814.00	555.88
815.00	551.93
816.00	546.85
817.00	544.57
818.00	538.92
819.00	532.56
820.00	527.55
821.00	523.18
822.00	520.30
823.00	515.84
824.00	509.80
825.00	509.15
826.00	501.40
827.00	496.15
828.00	492.13
829.00	488.29
830.00	482.50
831.00	479.11
832.00	474.83
833.00	471.63
834.00	465.71
835.00	465.53
836.00	458.75
837.00	454.51
838.00	451.27
839.00	447.78
840.00	443.62
841.00	440.18
842.00	438.79
843.00	434.85
844.00	431.74
845.00	427.71
846.00	424.35
847.00	419.25
848.00	417.26
849.00	413.95
850.00	411.80
851.00	408.71
852.00	405.83
853.00	403.99
854.00	400.04
855.00	396.70
856.00	398.08
857.00	393.51
858.00	390.31
859.00	386.95
860.00	384.77
861.00	386.05
862.00	380.38
863.00	377.11
864.00	376.56
865.00	373.21
866.00	369.99
867.00	369.47
868.00	367.42
869.00	363.02
870.00	360.19
871.00	358.25
872.00	357.72
873.00	354.91
874.00	350.24
875.00	349.05
876.00	346.31
877.00	344.81
878.00	341.66
879.00	339.79
880.00	339.07
881.00	338.16
882.00	336.09
883.00	333.82
884.00	332.34
885.00	331.26
886.00	328.67
887.00	327.84
888.00	326.07
889.00	325.33
890.00	324.69
891.00	325.25
892.00	322.81
893.00	322.16
894.00	320.48
895.00	323.86
896.00	320.40
897.00	319.59
898.00	320.20
899.00	319.21
900.00	319.74
901.00	320.60
902.00	319.39
903.00	323.29
904.00	319.60
905.00	318.86
906.00	322.20
907.00	320.06
908.00	319.63
909.00	318.80
910.00	318.48
911.00	317.83
912.00	317.78
913.00	316.80
914.00	316.53
915.00	315.37
916.00	315.03
917.00	314.09
918.00	311.81
919.00	311.66
920.00	308.78
921.00	308.84
922.00	305.38
923.00	304.18
924.00	302.19
925.00	300.45
926.00	297.83
927.00	295.93
928.00	292.91
929.00	291.46
930.00	289.57
931.00	286.15
932.00	283.86
933.00	282.09
934.00	278.27
935.00	275.39
936.00	271.28
937.00	267.28
938.00	263.52
939.00	258.17
940.00	253.37
941.00	249.55
942.00	247.30
943.00	244.11
944.00	241.48
945.00	243.83
946.00	239.50
947.00	239.90
948.00	238.76
949.00	239.08
950.00	239.81
951.00	240.26
952.00	239.10
953.00	240.58
954.00	239.37
955.00	241.11
956.00	240.70
957.00	240.77
958.00	240.98
959.00	240.05
960.00	240.40
961.00	239.89
962.00	240.26
963.00	239.67
964.00	239.59
965.00	238.47
966.00	237.85
967.00	238.64
968.00	237.48
969.00	236.96
970.00	236.01
971.00	236.55
972.00	235.79
973.00	236.59
974.00	234.94
975.00	233.55
976.00	234.31
977.00	231.99
978.00	232.16
979.00	231.69
980.00	230.37
981.00	230.24
982.00	230.04
983.00	231.20
984.00	228.91
985.00	229.41
986.00	227.85
987.00	227.33
988.00	227.76
989.00	227.06
990.00	225.75
991.00	226.24
992.00	224.78
993.00	225.47
994.00	224.34
995.00	223.90
996.00	223.81
997.00	223.52
998.00	222.96
999.00	223.60
1000.00	221.42
>>>>>End Processed Spectral Data<<<<<
