SpectraSuite Data File
++++++++++++++++++++++++++++++++++++
Date: Fri Jan 27 17:04:42 CST 2012
User: Helimak
Dark Spectrum Present: No
Reference Spectrum Present: No
Number of Sampled Component Spectra: 1
Spectrometers: USB2G37154
Integration Time (usec): 150000 (USB2G37154)
Spectra Averaged: 200 (USB2G37154)
Boxcar Smoothing: 0 (USB2G37154)
Correct for Electrical Dark: No (USB2G37154)
Strobe/Lamp Enabled: No (USB2G37154)
Correct for Detector Non-linearity: No (USB2G37154)
Correct for Stray Light: No (USB2G37154)
Number of Pixels in Processed Spectrum: 651
>>>>>Begin Processed Spectral Data<<<<<
350.00	214.23
351.00	214.49
352.00	214.21
353.00	214.25
354.00	214.79
355.00	215.41
356.00	215.15
357.00	214.20
358.00	216.42
359.00	215.16
360.00	215.34
361.00	214.92
362.00	217.43
363.00	215.09
364.00	216.97
365.00	215.80
366.00	216.00
367.00	215.67
368.00	215.25
369.00	216.15
370.00	216.42
371.00	215.82
372.00	216.69
373.00	216.78
374.00	217.75
375.00	218.90
376.00	216.60
377.00	217.02
378.00	219.09
379.00	216.96
380.00	217.02
381.00	216.94
382.00	217.38
383.00	218.69
384.00	217.26
385.00	218.14
386.00	217.77
387.00	218.41
388.00	217.30
389.00	218.05
390.00	218.48
391.00	218.82
392.00	218.57
393.00	218.57
394.00	219.55
395.00	218.90
396.00	219.31
397.00	219.49
398.00	219.98
399.00	220.76
400.00	220.44
401.00	220.74
402.00	222.12
403.00	223.17
404.00	223.93
405.00	225.44
406.00	226.14
407.00	227.81
408.00	229.48
409.00	231.73
410.00	233.11
411.00	235.26
412.00	237.92
413.00	241.81
414.00	243.03
415.00	246.31
416.00	249.28
417.00	252.99
418.00	256.04
419.00	259.26
420.00	262.66
421.00	265.55
422.00	270.44
423.00	275.09
424.00	278.24
425.00	283.23
426.00	286.91
427.00	294.00
428.00	294.45
429.00	297.42
430.00	299.82
431.00	301.57
432.00	306.56
433.00	305.35
434.00	304.09
435.00	309.55
436.00	308.84
437.00	312.62
438.00	307.42
439.00	310.38
440.00	310.63
441.00	312.47
442.00	312.42
443.00	314.12
444.00	317.36
445.00	319.39
446.00	323.53
447.00	326.15
448.00	330.00
449.00	334.38
450.00	338.30
451.00	344.99
452.00	350.45
453.00	357.39
454.00	359.83
455.00	365.71
456.00	372.18
457.00	375.51
458.00	378.14
459.00	380.34
460.00	382.42
461.00	383.31
462.00	386.70
463.00	384.20
464.00	382.87
465.00	386.20
466.00	387.88
467.00	384.01
468.00	385.73
469.00	387.66
470.00	388.15
471.00	390.01
472.00	395.17
473.00	397.82
474.00	403.63
475.00	407.05
476.00	414.45
477.00	421.78
478.00	428.22
479.00	436.02
480.00	445.23
481.00	453.68
482.00	463.93
483.00	473.60
484.00	487.57
485.00	499.36
486.00	512.31
487.00	523.81
488.00	536.28
489.00	550.99
490.00	560.42
491.00	571.13
492.00	583.47
493.00	592.41
494.00	599.50
495.00	602.75
496.00	607.67
497.00	612.31
498.00	615.06
499.00	617.09
500.00	616.84
501.00	617.19
502.00	616.16
503.00	616.97
504.00	617.81
505.00	616.40
506.00	619.40
507.00	620.96
508.00	619.97
509.00	619.81
510.00	621.95
511.00	627.39
512.00	627.81
513.00	631.97
514.00	633.57
515.00	637.54
516.00	641.36
517.00	646.63
518.00	655.37
519.00	663.53
520.00	671.41
521.00	677.60
522.00	686.59
523.00	696.11
524.00	705.99
525.00	714.54
526.00	726.25
527.00	737.97
528.00	749.73
529.00	764.17
530.00	770.95
531.00	784.64
532.00	798.86
533.00	805.61
534.00	815.60
535.00	826.39
536.00	832.98
537.00	841.47
538.00	848.74
539.00	848.22
540.00	852.82
541.00	859.66
542.00	863.12
543.00	862.79
544.00	861.76
545.00	857.34
546.00	856.85
547.00	850.46
548.00	846.52
549.00	846.53
550.00	841.59
551.00	839.65
552.00	838.51
553.00	837.79
554.00	840.34
555.00	839.03
556.00	841.26
557.00	840.64
558.00	840.46
559.00	844.67
560.00	847.40
561.00	849.98
562.00	860.53
563.00	858.88
564.00	867.28
565.00	874.46
566.00	880.86
567.00	884.79
568.00	888.50
569.00	893.40
570.00	904.03
571.00	923.52
572.00	919.46
573.00	932.13
574.00	937.67
575.00	944.45
576.00	956.55
577.00	959.13
578.00	968.72
579.00	977.73
580.00	985.61
581.00	988.17
582.00	993.88
583.00	1000.97
584.00	1007.99
585.00	1001.97
586.00	1005.60
587.00	1007.68
588.00	1004.83
589.00	1008.01
590.00	1004.84
591.00	1003.05
592.00	1001.23
593.00	1000.28
594.00	1000.71
595.00	996.73
596.00	993.06
597.00	990.69
598.00	988.10
599.00	988.52
600.00	989.80
601.00	984.74
602.00	980.22
603.00	983.89
604.00	981.59
605.00	980.27
606.00	982.76
607.00	983.01
608.00	982.92
609.00	982.09
610.00	980.48
611.00	995.51
612.00	997.49
613.00	994.28
614.00	995.59
615.00	998.66
616.00	999.65
617.00	1000.78
618.00	1003.57
619.00	1009.16
620.00	1012.07
621.00	1018.93
622.00	1019.81
623.00	1023.75
624.00	1030.49
625.00	1035.42
626.00	1037.02
627.00	1044.74
628.00	1049.81
629.00	1058.79
630.00	1056.39
631.00	1068.99
632.00	1067.08
633.00	1063.17
634.00	1069.78
635.00	1073.00
636.00	1074.84
637.00	1069.98
638.00	1076.14
639.00	1071.77
640.00	1078.11
641.00	1070.51
642.00	1064.03
643.00	1065.05
644.00	1059.11
645.00	1054.52
646.00	1049.30
647.00	1044.09
648.00	1038.82
649.00	1034.33
650.00	1028.24
651.00	1024.33
652.00	1015.65
653.00	1008.91
654.00	1002.75
655.00	996.76
656.00	988.03
657.00	983.19
658.00	981.30
659.00	973.30
660.00	968.39
661.00	963.12
662.00	960.32
663.00	961.20
664.00	955.16
665.00	942.89
666.00	942.86
667.00	938.59
668.00	935.81
669.00	929.13
670.00	930.57
671.00	926.51
672.00	922.23
673.00	922.28
674.00	918.75
675.00	912.82
676.00	918.67
677.00	914.12
678.00	914.88
679.00	912.27
680.00	909.85
681.00	911.23
682.00	913.68
683.00	907.38
684.00	916.36
685.00	913.72
686.00	905.71
687.00	907.58
688.00	909.40
689.00	911.70
690.00	913.00
691.00	914.15
692.00	912.31
693.00	913.08
694.00	917.95
695.00	920.18
696.00	918.89
697.00	924.56
698.00	921.26
699.00	922.08
700.00	919.97
701.00	921.39
702.00	921.53
703.00	920.36
704.00	917.11
705.00	920.02
706.00	909.95
707.00	909.49
708.00	908.82
709.00	910.14
710.00	905.35
711.00	900.59
712.00	897.85
713.00	887.06
714.00	883.05
715.00	879.31
716.00	869.40
717.00	863.01
718.00	853.45
719.00	847.31
720.00	836.46
721.00	827.66
722.00	815.91
723.00	809.38
724.00	801.73
725.00	806.74
726.00	786.06
727.00	776.66
728.00	775.68
729.00	769.62
730.00	763.52
731.00	760.24
732.00	756.38
733.00	752.14
734.00	742.52
735.00	743.29
736.00	733.36
737.00	727.11
738.00	730.62
739.00	718.19
740.00	721.03
741.00	714.61
742.00	704.82
743.00	702.99
744.00	697.05
745.00	697.95
746.00	683.24
747.00	682.85
748.00	677.30
749.00	671.32
750.00	665.30
751.00	667.60
752.00	658.68
753.00	662.07
754.00	655.68
755.00	652.54
756.00	646.70
757.00	645.83
758.00	645.13
759.00	646.05
760.00	636.80
761.00	636.17
762.00	634.02
763.00	628.48
764.00	621.42
765.00	620.35
766.00	618.70
767.00	616.55
768.00	610.35
769.00	613.08
770.00	607.58
771.00	606.01
772.00	603.68
773.00	603.24
774.00	599.15
775.00	596.66
776.00	590.33
777.00	590.09
778.00	583.41
779.00	586.28
780.00	580.44
781.00	579.74
782.00	578.23
783.00	579.53
784.00	578.81
785.00	580.68
786.00	582.56
787.00	584.69
788.00	586.90
789.00	591.54
790.00	588.96
791.00	591.37
792.00	591.04
793.00	594.84
794.00	595.17
795.00	596.94
796.00	595.82
797.00	597.26
798.00	599.42
799.00	598.49
800.00	597.20
801.00	593.75
802.00	592.94
803.00	592.70
804.00	588.05
805.00	585.62
806.00	585.69
807.00	581.89
808.00	581.19
809.00	576.15
810.00	572.02
811.00	567.47
812.00	564.60
813.00	560.71
814.00	554.86
815.00	551.61
816.00	546.91
817.00	543.55
818.00	538.15
819.00	532.84
820.00	526.66
821.00	523.17
822.00	519.86
823.00	515.81
824.00	510.03
825.00	509.39
826.00	500.94
827.00	496.07
828.00	491.58
829.00	489.16
830.00	481.59
831.00	478.73
832.00	474.42
833.00	471.66
834.00	465.13
835.00	464.80
836.00	459.17
837.00	454.10
838.00	451.29
839.00	448.09
840.00	443.31
841.00	439.31
842.00	438.65
843.00	435.66
844.00	430.40
845.00	426.99
846.00	423.67
847.00	418.39
848.00	416.57
849.00	413.35
850.00	411.69
851.00	408.44
852.00	405.96
853.00	403.84
854.00	399.96
855.00	396.39
856.00	397.48
857.00	393.00
858.00	390.13
859.00	387.52
860.00	384.30
861.00	386.01
862.00	379.91
863.00	377.09
864.00	376.73
865.00	373.49
866.00	369.55
867.00	369.41
868.00	366.55
869.00	363.13
870.00	360.25
871.00	358.71
872.00	357.40
873.00	354.66
874.00	349.92
875.00	349.18
876.00	346.62
877.00	344.71
878.00	340.61
879.00	339.25
880.00	338.78
881.00	337.82
882.00	335.63
883.00	333.50
884.00	332.84
885.00	331.23
886.00	328.80
887.00	327.79
888.00	326.10
889.00	324.80
890.00	325.03
891.00	325.04
892.00	323.35
893.00	322.11
894.00	320.56
895.00	323.21
896.00	319.98
897.00	319.49
898.00	320.05
899.00	318.92
900.00	320.05
901.00	320.56
902.00	319.04
903.00	323.31
904.00	318.99
905.00	319.25
906.00	322.09
907.00	320.27
908.00	319.36
909.00	317.97
910.00	318.63
911.00	317.73
912.00	317.93
913.00	317.23
914.00	316.77
915.00	315.07
916.00	315.21
917.00	314.24
918.00	311.89
919.00	311.52
920.00	308.93
921.00	308.77
922.00	305.21
923.00	304.59
924.00	302.40
925.00	301.33
926.00	298.00
927.00	296.12
928.00	292.89
929.00	291.57
930.00	289.21
931.00	286.45
932.00	284.13
933.00	282.08
934.00	278.66
935.00	275.15
936.00	271.49
937.00	267.50
938.00	263.74
939.00	258.35
940.00	253.29
941.00	249.92
942.00	247.87
943.00	243.81
944.00	241.45
945.00	243.45
946.00	239.39
947.00	239.37
948.00	238.50
949.00	239.19
950.00	239.32
951.00	240.07
952.00	239.51
953.00	240.08
954.00	239.20
955.00	241.26
956.00	240.56
957.00	240.60
958.00	240.98
959.00	240.30
960.00	240.39
961.00	239.76
962.00	239.99
963.00	239.41
964.00	239.34
965.00	238.86
966.00	238.04
967.00	238.46
968.00	237.71
969.00	236.76
970.00	236.03
971.00	236.61
972.00	235.20
973.00	236.64
974.00	235.14
975.00	233.61
976.00	234.42
977.00	232.36
978.00	231.81
979.00	231.47
980.00	230.50
981.00	230.08
982.00	230.29
983.00	231.18
984.00	229.29
985.00	229.44
986.00	227.65
987.00	227.86
988.00	228.18
989.00	227.04
990.00	225.50
991.00	226.03
992.00	225.17
993.00	225.71
994.00	224.67
995.00	224.23
996.00	223.86
997.00	223.68
998.00	223.25
999.00	223.17
1000.00	221.94
>>>>>End Processed Spectral Data<<<<<
