SpectraSuite Data File
++++++++++++++++++++++++++++++++++++
Date: Fri Jan 27 16:00:11 CST 2012
User: Helimak
Dark Spectrum Present: No
Reference Spectrum Present: No
Number of Sampled Component Spectra: 1
Spectrometers: USB2G37154
Integration Time (usec): 150000 (USB2G37154)
Spectra Averaged: 200 (USB2G37154)
Boxcar Smoothing: 0 (USB2G37154)
Correct for Electrical Dark: No (USB2G37154)
Strobe/Lamp Enabled: No (USB2G37154)
Correct for Detector Non-linearity: No (USB2G37154)
Correct for Stray Light: No (USB2G37154)
Number of Pixels in Processed Spectrum: 651
>>>>>Begin Processed Spectral Data<<<<<
350.00	213.51
351.00	214.71
352.00	213.71
353.00	214.15
354.00	214.48
355.00	215.02
356.00	215.06
357.00	213.78
358.00	216.06
359.00	214.55
360.00	215.04
361.00	214.86
362.00	216.85
363.00	215.07
364.00	216.68
365.00	215.25
366.00	215.22
367.00	215.38
368.00	215.43
369.00	215.85
370.00	216.25
371.00	215.73
372.00	216.57
373.00	216.23
374.00	217.39
375.00	218.88
376.00	216.23
377.00	216.77
378.00	218.65
379.00	216.68
380.00	216.68
381.00	216.91
382.00	216.88
383.00	218.51
384.00	217.11
385.00	217.57
386.00	217.71
387.00	218.07
388.00	217.14
389.00	217.70
390.00	218.07
391.00	218.53
392.00	218.05
393.00	218.46
394.00	219.07
395.00	218.51
396.00	219.14
397.00	219.07
398.00	219.40
399.00	220.30
400.00	220.11
401.00	220.33
402.00	221.56
403.00	222.67
404.00	223.50
405.00	224.89
406.00	225.47
407.00	227.18
408.00	228.84
409.00	230.81
410.00	232.45
411.00	234.56
412.00	237.29
413.00	240.18
414.00	242.21
415.00	245.90
416.00	248.32
417.00	251.80
418.00	255.10
419.00	257.97
420.00	261.78
421.00	264.25
422.00	269.20
423.00	273.51
424.00	276.90
425.00	281.73
426.00	285.62
427.00	292.54
428.00	292.79
429.00	295.81
430.00	298.12
431.00	299.92
432.00	305.62
433.00	303.60
434.00	302.84
435.00	307.30
436.00	307.27
437.00	310.85
438.00	305.62
439.00	308.86
440.00	309.02
441.00	311.01
442.00	311.06
443.00	313.05
444.00	316.05
445.00	317.55
446.00	320.96
447.00	324.30
448.00	327.42
449.00	331.83
450.00	336.20
451.00	342.55
452.00	347.38
453.00	354.42
454.00	356.77
455.00	362.97
456.00	370.00
457.00	373.11
458.00	374.87
459.00	377.56
460.00	379.03
461.00	379.83
462.00	383.96
463.00	381.05
464.00	380.14
465.00	382.94
466.00	384.56
467.00	380.90
468.00	382.30
469.00	383.86
470.00	385.36
471.00	386.89
472.00	391.71
473.00	394.83
474.00	400.38
475.00	403.77
476.00	409.93
477.00	417.25
478.00	424.02
479.00	431.83
480.00	440.54
481.00	449.01
482.00	459.28
483.00	468.27
484.00	481.85
485.00	493.59
486.00	506.57
487.00	518.76
488.00	531.07
489.00	546.21
490.00	554.57
491.00	565.29
492.00	576.48
493.00	585.11
494.00	591.94
495.00	595.85
496.00	600.64
497.00	605.82
498.00	607.13
499.00	608.96
500.00	609.57
501.00	608.49
502.00	607.66
503.00	609.51
504.00	610.21
505.00	607.77
506.00	611.37
507.00	612.55
508.00	612.32
509.00	612.17
510.00	613.35
511.00	618.75
512.00	618.69
513.00	623.43
514.00	624.29
515.00	629.12
516.00	633.18
517.00	638.13
518.00	646.45
519.00	654.07
520.00	661.96
521.00	667.92
522.00	676.70
523.00	686.25
524.00	695.29
525.00	705.08
526.00	715.41
527.00	728.13
528.00	739.94
529.00	753.78
530.00	760.49
531.00	773.13
532.00	786.77
533.00	793.61
534.00	803.26
535.00	813.82
536.00	819.16
537.00	827.83
538.00	835.44
539.00	835.69
540.00	839.00
541.00	845.64
542.00	849.02
543.00	849.54
544.00	848.77
545.00	842.99
546.00	844.19
547.00	837.07
548.00	832.98
549.00	832.03
550.00	828.07
551.00	826.00
552.00	825.00
553.00	823.87
554.00	827.24
555.00	826.34
556.00	826.91
557.00	827.83
558.00	827.04
559.00	829.48
560.00	833.71
561.00	837.34
562.00	846.52
563.00	845.26
564.00	853.01
565.00	860.28
566.00	865.39
567.00	870.45
568.00	872.24
569.00	878.71
570.00	889.19
571.00	907.34
572.00	905.31
573.00	916.64
574.00	923.27
575.00	926.96
576.00	939.57
577.00	942.01
578.00	951.69
579.00	960.25
580.00	968.85
581.00	972.25
582.00	975.27
583.00	983.39
584.00	989.47
585.00	982.63
586.00	987.04
587.00	990.08
588.00	988.56
589.00	989.50
590.00	986.18
591.00	986.67
592.00	984.32
593.00	980.88
594.00	983.18
595.00	979.61
596.00	976.25
597.00	973.79
598.00	971.31
599.00	972.96
600.00	971.98
601.00	967.69
602.00	963.37
603.00	966.86
604.00	965.19
605.00	963.23
606.00	964.90
607.00	965.61
608.00	965.88
609.00	966.16
610.00	963.46
611.00	979.31
612.00	979.81
613.00	977.15
614.00	980.04
615.00	981.53
616.00	983.08
617.00	985.29
618.00	986.87
619.00	1002.90
620.00	994.25
621.00	1000.14
622.00	1002.22
623.00	1005.59
624.00	1012.42
625.00	1016.25
626.00	1020.01
627.00	1026.54
628.00	1033.20
629.00	1040.09
630.00	1038.20
631.00	1049.98
632.00	1048.60
633.00	1044.60
634.00	1053.39
635.00	1051.94
636.00	1057.11
637.00	1051.80
638.00	1056.63
639.00	1051.41
640.00	1059.37
641.00	1052.18
642.00	1045.09
643.00	1045.52
644.00	1040.09
645.00	1036.24
646.00	1031.20
647.00	1025.87
648.00	1019.66
649.00	1014.46
650.00	1009.42
651.00	1006.03
652.00	996.86
653.00	991.98
654.00	984.95
655.00	979.62
656.00	973.01
657.00	966.75
658.00	964.36
659.00	955.43
660.00	952.70
661.00	945.46
662.00	941.28
663.00	944.22
664.00	938.41
665.00	925.74
666.00	926.13
667.00	922.91
668.00	919.67
669.00	910.54
670.00	914.11
671.00	910.58
672.00	904.90
673.00	905.52
674.00	903.27
675.00	897.15
676.00	902.86
677.00	898.49
678.00	899.54
679.00	895.24
680.00	893.91
681.00	895.61
682.00	897.68
683.00	891.65
684.00	898.83
685.00	897.45
686.00	890.50
687.00	893.02
688.00	895.78
689.00	895.98
690.00	897.42
691.00	898.61
692.00	897.36
693.00	897.86
694.00	901.10
695.00	903.13
696.00	903.65
697.00	907.38
698.00	905.39
699.00	906.79
700.00	902.66
701.00	905.19
702.00	906.84
703.00	902.76
704.00	900.52
705.00	903.59
706.00	894.21
707.00	893.50
708.00	892.46
709.00	893.23
710.00	888.21
711.00	883.55
712.00	881.79
713.00	871.50
714.00	868.09
715.00	864.84
716.00	854.23
717.00	847.96
718.00	838.82
719.00	832.81
720.00	822.92
721.00	813.95
722.00	802.37
723.00	796.75
724.00	787.97
725.00	793.25
726.00	771.98
727.00	761.97
728.00	761.66
729.00	756.46
730.00	751.45
731.00	746.61
732.00	742.61
733.00	739.25
734.00	731.07
735.00	730.28
736.00	720.89
737.00	715.27
738.00	718.35
739.00	707.54
740.00	708.13
741.00	704.19
742.00	692.84
743.00	690.95
744.00	685.47
745.00	684.54
746.00	672.35
747.00	673.07
748.00	665.86
749.00	662.46
750.00	655.24
751.00	656.02
752.00	647.04
753.00	651.39
754.00	645.34
755.00	641.54
756.00	635.49
757.00	635.38
758.00	635.31
759.00	635.81
760.00	627.63
761.00	627.10
762.00	623.28
763.00	618.79
764.00	610.81
765.00	608.95
766.00	609.16
767.00	608.13
768.00	602.58
769.00	603.09
770.00	597.86
771.00	597.53
772.00	594.92
773.00	593.11
774.00	589.72
775.00	587.23
776.00	581.45
777.00	579.84
778.00	573.28
779.00	578.11
780.00	570.99
781.00	570.02
782.00	570.05
783.00	569.86
784.00	570.55
785.00	571.13
786.00	574.60
787.00	574.99
788.00	577.75
789.00	582.43
790.00	580.85
791.00	581.30
792.00	582.64
793.00	585.57
794.00	585.22
795.00	587.23
796.00	586.27
797.00	587.93
798.00	589.79
799.00	587.69
800.00	586.68
801.00	584.79
802.00	583.57
803.00	584.05
804.00	577.59
805.00	576.50
806.00	577.05
807.00	573.30
808.00	571.84
809.00	568.06
810.00	563.90
811.00	559.83
812.00	556.62
813.00	552.22
814.00	546.59
815.00	542.75
816.00	539.53
817.00	536.13
818.00	530.71
819.00	524.26
820.00	519.47
821.00	515.22
822.00	513.23
823.00	507.89
824.00	502.64
825.00	502.52
826.00	494.97
827.00	489.67
828.00	484.68
829.00	481.77
830.00	475.77
831.00	472.16
832.00	468.37
833.00	464.87
834.00	458.67
835.00	459.30
836.00	453.37
837.00	448.30
838.00	445.50
839.00	442.33
840.00	438.38
841.00	433.61
842.00	432.45
843.00	430.29
844.00	424.85
845.00	422.31
846.00	418.99
847.00	413.96
848.00	411.89
849.00	408.27
850.00	407.16
851.00	403.85
852.00	400.91
853.00	399.25
854.00	395.49
855.00	391.93
856.00	393.65
857.00	387.95
858.00	385.32
859.00	382.02
860.00	379.96
861.00	381.60
862.00	375.40
863.00	372.88
864.00	372.08
865.00	369.09
866.00	366.17
867.00	365.67
868.00	363.33
869.00	359.20
870.00	356.25
871.00	355.32
872.00	353.43
873.00	350.82
874.00	346.62
875.00	345.88
876.00	343.25
877.00	341.86
878.00	337.87
879.00	336.03
880.00	335.30
881.00	334.77
882.00	332.64
883.00	330.36
884.00	329.72
885.00	327.60
886.00	325.72
887.00	324.77
888.00	323.07
889.00	322.47
890.00	321.71
891.00	322.00
892.00	321.01
893.00	319.44
894.00	317.64
895.00	320.83
896.00	317.74
897.00	316.91
898.00	317.40
899.00	317.20
900.00	317.49
901.00	318.16
902.00	316.05
903.00	320.02
904.00	316.69
905.00	316.65
906.00	319.61
907.00	317.40
908.00	316.93
909.00	314.80
910.00	315.60
911.00	315.23
912.00	315.43
913.00	314.18
914.00	313.77
915.00	312.61
916.00	312.44
917.00	311.34
918.00	309.02
919.00	309.51
920.00	306.82
921.00	305.99
922.00	302.82
923.00	302.46
924.00	299.62
925.00	297.82
926.00	296.09
927.00	293.91
928.00	290.93
929.00	288.73
930.00	287.45
931.00	284.26
932.00	282.04
933.00	280.45
934.00	276.86
935.00	273.84
936.00	269.56
937.00	265.40
938.00	262.27
939.00	256.84
940.00	252.21
941.00	248.69
942.00	246.53
943.00	243.19
944.00	240.63
945.00	242.73
946.00	238.61
947.00	238.83
948.00	238.14
949.00	237.97
950.00	239.13
951.00	239.24
952.00	238.53
953.00	239.52
954.00	238.27
955.00	240.24
956.00	239.76
957.00	239.93
958.00	239.99
959.00	239.59
960.00	239.61
961.00	238.96
962.00	238.72
963.00	238.54
964.00	238.40
965.00	237.19
966.00	237.19
967.00	237.37
968.00	237.08
969.00	235.74
970.00	235.23
971.00	235.50
972.00	234.57
973.00	235.73
974.00	234.26
975.00	233.22
976.00	233.95
977.00	231.29
978.00	231.34
979.00	231.28
980.00	229.87
981.00	229.28
982.00	229.64
983.00	230.48
984.00	228.31
985.00	229.12
986.00	226.94
987.00	227.00
988.00	227.54
989.00	226.31
990.00	224.78
991.00	225.13
992.00	224.75
993.00	225.08
994.00	224.21
995.00	223.34
996.00	223.41
997.00	223.33
998.00	222.20
999.00	222.75
1000.00	221.15
>>>>>End Processed Spectral Data<<<<<
