SpectraSuite Data File
++++++++++++++++++++++++++++++++++++
Date: Sun May 20 11:28:46 CDT 2012
User: Helimak
Dark Spectrum Present: No
Reference Spectrum Present: No
Number of Sampled Component Spectra: 1
Spectrometers: USB2G37154
Integration Time (usec): 100000 (USB2G37154)
Spectra Averaged: 1 (USB2G37154)
Boxcar Smoothing: 0 (USB2G37154)
Correct for Electrical Dark: No (USB2G37154)
Strobe/Lamp Enabled: No (USB2G37154)
Correct for Detector Non-linearity: No (USB2G37154)
Correct for Stray Light: No (USB2G37154)
Number of Pixels in Processed Spectrum: 651
>>>>>Begin Processed Spectral Data<<<<<
350.00	219.60
351.00	218.26
352.00	219.77
353.00	216.35
354.00	216.80
355.00	219.12
356.00	217.03
357.00	219.97
358.00	221.91
359.00	224.29
360.00	222.07
361.00	223.84
362.00	227.43
363.00	223.32
364.00	226.44
365.00	226.68
366.00	220.20
367.00	223.92
368.00	223.75
369.00	225.13
370.00	224.03
371.00	229.01
372.00	228.68
373.00	229.07
374.00	231.30
375.00	232.60
376.00	229.06
377.00	231.39
378.00	230.25
379.00	229.77
380.00	234.50
381.00	236.27
382.00	232.39
383.00	236.00
384.00	238.26
385.00	238.58
386.00	241.99
387.00	243.88
388.00	244.28
389.00	245.07
390.00	247.06
391.00	246.41
392.00	246.84
393.00	246.15
394.00	250.71
395.00	252.00
396.00	248.97
397.00	254.44
398.00	259.48
399.00	263.20
400.00	265.20
401.00	267.00
402.00	275.16
403.00	280.57
404.00	291.28
405.00	299.57
406.00	296.00
407.00	297.72
408.00	305.20
409.00	311.12
410.00	313.30
411.00	314.25
412.00	319.61
413.00	330.60
414.00	327.89
415.00	332.19
416.00	333.62
417.00	348.91
418.00	356.59
419.00	362.69
420.00	370.53
421.00	382.96
422.00	389.13
423.00	399.46
424.00	414.98
425.00	426.99
426.00	439.28
427.00	457.26
428.00	460.62
429.00	468.52
430.00	472.98
431.00	486.25
432.00	499.02
433.00	490.28
434.00	482.13
435.00	539.70
436.00	514.49
437.00	512.67
438.00	503.00
439.00	505.79
440.00	510.05
441.00	513.55
442.00	517.93
443.00	523.99
444.00	538.46
445.00	533.86
446.00	547.81
447.00	559.95
448.00	567.27
449.00	590.81
450.00	592.08
451.00	615.37
452.00	648.21
453.00	654.73
454.00	661.84
455.00	685.28
456.00	699.21
457.00	706.39
458.00	711.49
459.00	728.53
460.00	734.97
461.00	727.92
462.00	751.89
463.00	743.87
464.00	740.14
465.00	747.06
466.00	744.90
467.00	739.77
468.00	741.83
469.00	743.36
470.00	739.93
471.00	755.65
472.00	765.14
473.00	765.69
474.00	773.80
475.00	790.19
476.00	824.58
477.00	844.47
478.00	867.67
479.00	875.28
480.00	891.48
481.00	932.99
482.00	947.64
483.00	987.71
484.00	1023.23
485.00	1076.75
486.00	1111.67
487.00	1145.60
488.00	1158.93
489.00	1219.71
490.00	1226.05
491.00	1260.18
492.00	1316.64
493.00	1314.93
494.00	1360.65
495.00	1354.73
496.00	1361.33
497.00	1364.09
498.00	1374.35
499.00	1371.49
500.00	1387.00
501.00	1386.62
502.00	1367.01
503.00	1374.58
504.00	1379.00
505.00	1378.84
506.00	1384.66
507.00	1366.55
508.00	1365.02
509.00	1362.48
510.00	1347.02
511.00	1377.98
512.00	1368.71
513.00	1385.68
514.00	1385.61
515.00	1406.26
516.00	1403.32
517.00	1422.26
518.00	1451.13
519.00	1459.25
520.00	1470.78
521.00	1483.80
522.00	1501.13
523.00	1534.24
524.00	1564.68
525.00	1582.35
526.00	1606.50
527.00	1644.23
528.00	1659.59
529.00	1702.72
530.00	1703.75
531.00	1761.05
532.00	1810.69
533.00	1791.21
534.00	1817.45
535.00	1843.01
536.00	1875.70
537.00	1878.96
538.00	1915.85
539.00	1905.83
540.00	1927.65
541.00	1977.77
542.00	2030.22
543.00	2047.87
544.00	2021.31
545.00	2005.86
546.00	1996.34
547.00	1938.31
548.00	1912.61
549.00	1914.21
550.00	1902.01
551.00	1893.87
552.00	1876.76
553.00	1877.21
554.00	1851.04
555.00	1882.23
556.00	1867.34
557.00	1850.10
558.00	1875.97
559.00	1866.47
560.00	1871.51
561.00	1865.34
562.00	1910.00
563.00	1910.03
564.00	1929.72
565.00	1929.82
566.00	1929.73
567.00	1966.95
568.00	1972.64
569.00	1976.32
570.00	1981.90
571.00	1998.63
572.00	2038.34
573.00	2060.22
574.00	2068.84
575.00	2099.85
576.00	2128.09
577.00	2112.24
578.00	2130.84
579.00	2179.05
580.00	2179.62
581.00	2212.66
582.00	2203.12
583.00	2229.10
584.00	2241.22
585.00	2219.98
586.00	2230.57
587.00	2249.31
588.00	2249.93
589.00	2238.15
590.00	2224.57
591.00	2223.16
592.00	2209.38
593.00	2199.00
594.00	2190.06
595.00	2168.36
596.00	2166.60
597.00	2143.23
598.00	2135.98
599.00	2141.62
600.00	2144.20
601.00	2116.94
602.00	2103.07
603.00	2129.43
604.00	2117.90
605.00	2102.46
606.00	2110.92
607.00	2096.13
608.00	2082.06
609.00	2096.63
610.00	2105.20
611.00	2188.71
612.00	2178.72
613.00	2119.24
614.00	2096.11
615.00	2108.84
616.00	2112.78
617.00	2091.17
618.00	2087.47
619.00	2095.75
620.00	2118.40
621.00	2116.26
622.00	2118.66
623.00	2115.37
624.00	2123.69
625.00	2145.81
626.00	2135.42
627.00	2125.81
628.00	2145.56
629.00	2166.22
630.00	2170.90
631.00	2192.51
632.00	2181.87
633.00	2171.07
634.00	2162.23
635.00	2187.57
636.00	2191.81
637.00	2184.66
638.00	2189.79
639.00	2182.83
640.00	2197.11
641.00	2183.92
642.00	2138.67
643.00	2150.57
644.00	2152.97
645.00	2131.18
646.00	2110.49
647.00	2103.37
648.00	2074.35
649.00	2079.18
650.00	2053.10
651.00	2058.38
652.00	2033.64
653.00	2010.50
654.00	2000.41
655.00	1985.72
656.00	1948.29
657.00	1962.27
658.00	1931.95
659.00	1929.15
660.00	1906.22
661.00	1895.63
662.00	1884.17
663.00	1910.28
664.00	1876.14
665.00	1846.64
666.00	1837.20
667.00	1837.00
668.00	1821.49
669.00	1790.69
670.00	1818.01
671.00	1783.90
672.00	1789.39
673.00	1777.90
674.00	1787.66
675.00	1782.65
676.00	1791.86
677.00	1764.84
678.00	1785.40
679.00	1792.75
680.00	1764.82
681.00	1761.34
682.00	1755.75
683.00	1775.77
684.00	1756.76
685.00	1757.41
686.00	1743.67
687.00	1740.53
688.00	1773.90
689.00	1758.45
690.00	1770.57
691.00	1745.39
692.00	1770.68
693.00	1763.64
694.00	1783.38
695.00	1784.27
696.00	1767.00
697.00	1784.45
698.00	1781.62
699.00	1774.74
700.00	1772.21
701.00	1778.25
702.00	1802.14
703.00	1758.15
704.00	1773.74
705.00	1766.80
706.00	1769.67
707.00	1772.33
708.00	1749.06
709.00	1769.63
710.00	1774.08
711.00	1748.58
712.00	1736.47
713.00	1719.53
714.00	1715.92
715.00	1699.10
716.00	1684.61
717.00	1665.54
718.00	1647.19
719.00	1625.55
720.00	1615.94
721.00	1591.70
722.00	1568.43
723.00	1536.03
724.00	1544.15
725.00	1533.80
726.00	1490.99
727.00	1493.43
728.00	1463.25
729.00	1473.40
730.00	1449.06
731.00	1418.33
732.00	1424.16
733.00	1419.05
734.00	1402.08
735.00	1401.57
736.00	1368.10
737.00	1388.09
738.00	1364.47
739.00	1338.34
740.00	1355.68
741.00	1341.37
742.00	1315.93
743.00	1317.74
744.00	1293.05
745.00	1286.43
746.00	1268.15
747.00	1250.60
748.00	1251.64
749.00	1244.20
750.00	1231.01
751.00	1216.39
752.00	1222.38
753.00	1216.60
754.00	1200.09
755.00	1204.79
756.00	1171.62
757.00	1184.61
758.00	1183.31
759.00	1195.15
760.00	1161.37
761.00	1153.93
762.00	1155.35
763.00	1143.36
764.00	1138.02
765.00	1145.79
766.00	1121.40
767.00	1134.75
768.00	1114.52
769.00	1113.54
770.00	1121.05
771.00	1113.75
772.00	1105.29
773.00	1104.06
774.00	1093.44
775.00	1078.45
776.00	1069.70
777.00	1082.38
778.00	1069.97
779.00	1087.52
780.00	1067.56
781.00	1070.63
782.00	1060.84
783.00	1072.22
784.00	1068.24
785.00	1070.94
786.00	1074.66
787.00	1089.50
788.00	1090.30
789.00	1102.93
790.00	1093.96
791.00	1103.10
792.00	1108.91
793.00	1097.45
794.00	1114.12
795.00	1127.63
796.00	1123.63
797.00	1125.31
798.00	1142.21
799.00	1125.93
800.00	1130.54
801.00	1117.59
802.00	1128.02
803.00	1124.19
804.00	1110.56
805.00	1115.01
806.00	1108.25
807.00	1109.90
808.00	1108.81
809.00	1085.87
810.00	1073.97
811.00	1080.01
812.00	1075.62
813.00	1063.27
814.00	1049.29
815.00	1050.39
816.00	1038.71
817.00	1031.24
818.00	1019.06
819.00	1006.42
820.00	978.23
821.00	964.70
822.00	969.07
823.00	951.75
824.00	938.86
825.00	939.08
826.00	929.03
827.00	898.10
828.00	900.09
829.00	896.11
830.00	864.25
831.00	848.69
832.00	853.70
833.00	851.66
834.00	831.33
835.00	818.34
836.00	810.91
837.00	796.40
838.00	788.48
839.00	779.69
840.00	768.73
841.00	755.87
842.00	752.42
843.00	738.73
844.00	725.99
845.00	724.58
846.00	714.67
847.00	711.12
848.00	705.67
849.00	689.95
850.00	698.91
851.00	686.61
852.00	678.60
853.00	667.50
854.00	646.44
855.00	655.06
856.00	640.52
857.00	635.65
858.00	625.80
859.00	629.01
860.00	611.31
861.00	625.02
862.00	605.54
863.00	598.53
864.00	595.36
865.00	598.99
866.00	577.86
867.00	582.36
868.00	574.02
869.00	565.18
870.00	570.35
871.00	553.64
872.00	553.03
873.00	551.74
874.00	534.32
875.00	533.01
876.00	528.88
877.00	530.50
878.00	521.91
879.00	517.30
880.00	513.11
881.00	523.41
882.00	502.06
883.00	504.18
884.00	497.02
885.00	495.32
886.00	494.72
887.00	488.54
888.00	491.05
889.00	486.18
890.00	486.93
891.00	485.02
892.00	481.19
893.00	481.24
894.00	478.69
895.00	478.63
896.00	474.69
897.00	469.13
898.00	475.43
899.00	470.25
900.00	470.47
901.00	473.51
902.00	469.70
903.00	476.65
904.00	475.53
905.00	473.08
906.00	476.38
907.00	473.87
908.00	470.02
909.00	473.93
910.00	475.00
911.00	484.64
912.00	475.88
913.00	473.40
914.00	476.94
915.00	466.10
916.00	477.83
917.00	469.76
918.00	468.86
919.00	464.91
920.00	472.75
921.00	465.97
922.00	461.63
923.00	455.63
924.00	461.91
925.00	453.74
926.00	450.97
927.00	446.10
928.00	441.83
929.00	438.49
930.00	427.59
931.00	422.55
932.00	415.38
933.00	413.23
934.00	402.98
935.00	394.77
936.00	396.39
937.00	383.62
938.00	368.68
939.00	363.91
940.00	342.41
941.00	334.23
942.00	323.99
943.00	315.34
944.00	299.31
945.00	302.73
946.00	291.82
947.00	287.94
948.00	294.99
949.00	290.57
950.00	290.97
951.00	300.94
952.00	291.94
953.00	297.84
954.00	294.25
955.00	300.51
956.00	298.63
957.00	299.13
958.00	304.40
959.00	299.95
960.00	304.80
961.00	299.86
962.00	299.99
963.00	304.44
964.00	308.45
965.00	301.41
966.00	301.24
967.00	303.60
968.00	300.01
969.00	303.90
970.00	296.73
971.00	295.98
972.00	290.48
973.00	297.28
974.00	297.12
975.00	289.97
976.00	289.55
977.00	288.02
978.00	281.55
979.00	287.58
980.00	285.38
981.00	285.17
982.00	285.30
983.00	282.14
984.00	275.33
985.00	278.41
986.00	270.29
987.00	271.06
988.00	269.41
989.00	270.97
990.00	272.34
991.00	266.03
992.00	263.75
993.00	266.56
994.00	266.79
995.00	257.52
996.00	265.89
997.00	259.13
998.00	258.89
999.00	257.27
1000.00	258.91
>>>>>End Processed Spectral Data<<<<<
