SpectraSuite Data File
++++++++++++++++++++++++++++++++++++
Date: Thu Oct 13 11:28:16 CDT 2011
User: Helimak
Dark Spectrum Present: No
Reference Spectrum Present: No
Number of Sampled Component Spectra: 1
Spectrometers: USB2G37154
Integration Time (usec): 20000 (USB2G37154)
Spectra Averaged: 1 (USB2G37154)
Boxcar Smoothing: 0 (USB2G37154)
Correct for Electrical Dark: No (USB2G37154)
Strobe/Lamp Enabled: No (USB2G37154)
Correct for Detector Non-linearity: No (USB2G37154)
Correct for Stray Light: No (USB2G37154)
Number of Pixels in Processed Spectrum: 651
>>>>>Begin Processed Spectral Data<<<<<
350.00	199.39
351.00	200.85
352.00	200.80
353.00	202.03
354.00	202.58
355.00	205.83
356.00	202.79
357.00	201.43
358.00	205.50
359.00	205.13
360.00	204.13
361.00	191.90
362.00	207.06
363.00	203.02
364.00	204.76
365.00	202.38
366.00	208.04
367.00	207.95
368.00	205.81
369.00	204.27
370.00	207.94
371.00	203.38
372.00	208.74
373.00	207.11
374.00	208.54
375.00	207.22
376.00	208.96
377.00	206.58
378.00	208.33
379.00	206.68
380.00	205.71
381.00	210.66
382.00	210.91
383.00	205.95
384.00	205.50
385.00	209.45
386.00	208.03
387.00	205.85
388.00	206.30
389.00	207.81
390.00	208.09
391.00	208.42
392.00	208.57
393.00	207.86
394.00	212.19
395.00	212.28
396.00	213.00
397.00	213.74
398.00	216.09
399.00	210.16
400.00	220.20
401.00	212.05
402.00	213.53
403.00	214.89
404.00	218.07
405.00	217.60
406.00	214.00
407.00	220.58
408.00	214.94
409.00	223.44
410.00	216.29
411.00	220.13
412.00	222.40
413.00	220.00
414.00	219.88
415.00	220.94
416.00	219.97
417.00	218.61
418.00	223.63
419.00	226.72
420.00	224.00
421.00	223.66
422.00	227.19
423.00	230.07
424.00	227.82
425.00	236.48
426.00	234.39
427.00	234.05
428.00	234.67
429.00	240.85
430.00	235.13
431.00	239.46
432.00	242.74
433.00	242.64
434.00	240.04
435.00	242.97
436.00	242.33
437.00	247.15
438.00	239.99
439.00	242.40
440.00	242.14
441.00	243.29
442.00	252.10
443.00	250.09
444.00	248.44
445.00	251.11
446.00	248.31
447.00	251.48
448.00	255.07
449.00	258.03
450.00	262.61
451.00	267.45
452.00	264.11
453.00	271.21
454.00	271.38
455.00	272.78
456.00	276.01
457.00	283.55
458.00	282.38
459.00	283.97
460.00	287.80
461.00	284.29
462.00	289.40
463.00	287.24
464.00	281.47
465.00	292.27
466.00	290.90
467.00	292.76
468.00	295.34
469.00	293.83
470.00	295.46
471.00	297.90
472.00	302.88
473.00	302.68
474.00	305.06
475.00	312.48
476.00	312.45
477.00	313.01
478.00	329.13
479.00	326.60
480.00	336.76
481.00	340.98
482.00	341.50
483.00	347.97
484.00	356.21
485.00	363.90
486.00	373.25
487.00	384.34
488.00	389.11
489.00	395.99
490.00	402.93
491.00	408.14
492.00	423.46
493.00	427.99
494.00	428.77
495.00	437.87
496.00	438.63
497.00	440.83
498.00	441.99
499.00	445.40
500.00	454.58
501.00	455.43
502.00	458.00
503.00	455.62
504.00	456.94
505.00	458.47
506.00	462.12
507.00	468.77
508.00	467.24
509.00	472.88
510.00	478.46
511.00	475.96
512.00	467.58
513.00	481.47
514.00	481.03
515.00	488.55
516.00	498.00
517.00	494.75
518.00	512.68
519.00	506.25
520.00	520.47
521.00	527.15
522.00	528.79
523.00	538.32
524.00	559.12
525.00	551.24
526.00	567.69
527.00	579.67
528.00	589.22
529.00	592.20
530.00	609.74
531.00	627.24
532.00	634.46
533.00	637.18
534.00	661.33
535.00	649.85
536.00	674.51
537.00	666.97
538.00	683.43
539.00	689.92
540.00	695.65
541.00	703.97
542.00	708.36
543.00	708.66
544.00	713.70
545.00	716.32
546.00	716.00
547.00	712.10
548.00	712.63
549.00	713.51
550.00	710.17
551.00	720.05
552.00	708.84
553.00	731.51
554.00	728.37
555.00	731.10
556.00	733.89
557.00	735.20
558.00	729.00
559.00	741.34
560.00	744.65
561.00	747.75
562.00	764.27
563.00	769.56
564.00	772.67
565.00	773.50
566.00	791.86
567.00	789.26
568.00	801.14
569.00	806.44
570.00	810.88
571.00	833.80
572.00	848.15
573.00	848.46
574.00	862.27
575.00	866.41
576.00	867.23
577.00	881.92
578.00	901.47
579.00	900.58
580.00	909.71
581.00	915.75
582.00	920.97
583.00	932.76
584.00	941.64
585.00	947.27
586.00	943.25
587.00	937.65
588.00	954.93
589.00	938.52
590.00	944.80
591.00	952.19
592.00	945.75
593.00	960.04
594.00	959.06
595.00	934.70
596.00	962.75
597.00	950.62
598.00	947.15
599.00	941.16
600.00	955.50
601.00	946.78
602.00	948.02
603.00	932.69
604.00	938.57
605.00	953.02
606.00	940.03
607.00	953.50
608.00	951.44
609.00	954.09
610.00	967.69
611.00	961.42
612.00	970.01
613.00	966.45
614.00	962.02
615.00	978.60
616.00	981.88
617.00	975.91
618.00	966.07
619.00	990.56
620.00	984.10
621.00	999.62
622.00	986.87
623.00	992.15
624.00	994.57
625.00	999.27
626.00	1010.91
627.00	1030.55
628.00	1028.84
629.00	1037.03
630.00	1039.13
631.00	1055.09
632.00	1043.44
633.00	1036.34
634.00	1048.34
635.00	1048.66
636.00	1041.72
637.00	1049.03
638.00	1051.68
639.00	1060.16
640.00	1034.69
641.00	1044.94
642.00	1035.28
643.00	1055.43
644.00	1039.14
645.00	1045.97
646.00	1033.32
647.00	1026.00
648.00	1040.71
649.00	1017.02
650.00	1016.49
651.00	1010.32
652.00	1003.51
653.00	994.33
654.00	994.43
655.00	966.40
656.00	982.46
657.00	969.67
658.00	970.00
659.00	953.94
660.00	948.75
661.00	945.21
662.00	958.75
663.00	948.61
664.00	943.61
665.00	930.05
666.00	928.44
667.00	919.43
668.00	930.01
669.00	930.25
670.00	922.22
671.00	907.95
672.00	890.62
673.00	904.03
674.00	907.58
675.00	907.68
676.00	887.91
677.00	906.12
678.00	906.23
679.00	907.03
680.00	897.14
681.00	892.69
682.00	893.76
683.00	887.20
684.00	884.42
685.00	894.68
686.00	898.08
687.00	894.44
688.00	911.18
689.00	890.08
690.00	887.79
691.00	887.69
692.00	907.14
693.00	890.07
694.00	915.05
695.00	919.83
696.00	907.00
697.00	923.97
698.00	917.52
699.00	908.84
700.00	896.05
701.00	916.49
702.00	906.80
703.00	907.56
704.00	899.42
705.00	902.02
706.00	884.53
707.00	899.36
708.00	901.62
709.00	889.31
710.00	886.99
711.00	891.23
712.00	886.66
713.00	879.52
714.00	861.67
715.00	867.48
716.00	864.50
717.00	853.94
718.00	841.01
719.00	831.10
720.00	819.58
721.00	803.67
722.00	798.05
723.00	795.63
724.00	794.50
725.00	785.62
726.00	773.61
727.00	760.26
728.00	763.94
729.00	766.73
730.00	754.99
731.00	746.28
732.00	749.84
733.00	739.18
734.00	742.35
735.00	733.43
736.00	732.29
737.00	728.44
738.00	722.13
739.00	707.88
740.00	707.78
741.00	723.77
742.00	691.74
743.00	703.87
744.00	683.18
745.00	680.19
746.00	677.38
747.00	670.26
748.00	664.30
749.00	660.52
750.00	660.53
751.00	666.25
752.00	653.80
753.00	652.28
754.00	644.15
755.00	641.92
756.00	631.77
757.00	622.24
758.00	635.59
759.00	648.14
760.00	632.64
761.00	638.92
762.00	627.84
763.00	621.52
764.00	610.98
765.00	609.26
766.00	597.80
767.00	608.28
768.00	606.09
769.00	607.30
770.00	605.23
771.00	603.50
772.00	597.76
773.00	597.76
774.00	587.93
775.00	594.28
776.00	576.29
777.00	591.79
778.00	583.00
779.00	576.88
780.00	575.73
781.00	572.39
782.00	583.77
783.00	569.08
784.00	569.89
785.00	580.54
786.00	572.21
787.00	575.78
788.00	577.92
789.00	589.98
790.00	581.83
791.00	584.82
792.00	583.65
793.00	585.85
794.00	593.95
795.00	582.75
796.00	599.08
797.00	599.84
798.00	588.86
799.00	599.24
800.00	584.69
801.00	587.86
802.00	588.92
803.00	575.23
804.00	574.85
805.00	577.80
806.00	575.47
807.00	569.17
808.00	573.55
809.00	567.88
810.00	565.08
811.00	560.29
812.00	552.89
813.00	566.28
814.00	556.03
815.00	548.76
816.00	532.86
817.00	537.09
818.00	538.39
819.00	526.61
820.00	524.23
821.00	515.16
822.00	515.70
823.00	508.58
824.00	503.71
825.00	500.19
826.00	502.93
827.00	490.53
828.00	473.27
829.00	472.18
830.00	485.42
831.00	477.63
832.00	466.27
833.00	467.15
834.00	456.77
835.00	451.25
836.00	456.05
837.00	446.51
838.00	452.14
839.00	440.75
840.00	438.32
841.00	424.06
842.00	424.95
843.00	424.02
844.00	418.55
845.00	418.31
846.00	412.39
847.00	415.75
848.00	411.49
849.00	406.53
850.00	410.87
851.00	397.52
852.00	401.12
853.00	401.96
854.00	388.94
855.00	393.45
856.00	392.61
857.00	387.52
858.00	383.74
859.00	383.88
860.00	376.63
861.00	377.16
862.00	368.99
863.00	371.64
864.00	367.23
865.00	365.55
866.00	360.11
867.00	363.96
868.00	359.94
869.00	359.40
870.00	351.78
871.00	352.11
872.00	342.21
873.00	349.96
874.00	342.63
875.00	344.81
876.00	346.10
877.00	335.77
878.00	334.44
879.00	331.54
880.00	327.32
881.00	335.66
882.00	322.25
883.00	320.12
884.00	320.00
885.00	321.79
886.00	316.88
887.00	324.41
888.00	317.67
889.00	318.08
890.00	318.00
891.00	318.87
892.00	314.53
893.00	310.86
894.00	316.71
895.00	315.83
896.00	317.86
897.00	312.94
898.00	315.13
899.00	312.39
900.00	311.74
901.00	313.04
902.00	310.82
903.00	317.43
904.00	315.29
905.00	312.87
906.00	313.62
907.00	312.55
908.00	317.06
909.00	309.92
910.00	312.61
911.00	308.89
912.00	317.58
913.00	311.49
914.00	308.90
915.00	305.20
916.00	306.42
917.00	306.27
918.00	310.59
919.00	304.75
920.00	298.43
921.00	300.17
922.00	298.66
923.00	294.19
924.00	295.87
925.00	289.43
926.00	286.99
927.00	286.46
928.00	288.34
929.00	281.90
930.00	277.73
931.00	283.05
932.00	276.89
933.00	276.87
934.00	262.20
935.00	259.46
936.00	262.54
937.00	254.42
938.00	256.50
939.00	251.24
940.00	245.23
941.00	240.62
942.00	235.91
943.00	236.41
944.00	243.00
945.00	229.89
946.00	228.04
947.00	226.12
948.00	224.46
949.00	226.94
950.00	225.59
951.00	229.71
952.00	227.01
953.00	230.02
954.00	226.56
955.00	229.84
956.00	229.57
957.00	226.20
958.00	235.93
959.00	233.02
960.00	232.56
961.00	233.00
962.00	226.34
963.00	232.94
964.00	229.14
965.00	226.20
966.00	227.13
967.00	227.00
968.00	226.04
969.00	229.41
970.00	226.60
971.00	226.32
972.00	223.08
973.00	223.58
974.00	226.77
975.00	224.00
976.00	218.02
977.00	224.09
978.00	224.86
979.00	218.58
980.00	223.26
981.00	221.07
982.00	218.29
983.00	215.24
984.00	222.50
985.00	216.05
986.00	217.01
987.00	218.10
988.00	216.98
989.00	217.82
990.00	214.97
991.00	217.37
992.00	214.66
993.00	219.22
994.00	214.96
995.00	210.35
996.00	213.47
997.00	212.49
998.00	211.98
999.00	213.28
1000.00	208.98
>>>>>End Processed Spectral Data<<<<<
