SpectraSuite Data File
++++++++++++++++++++++++++++++++++++
Date: Thu Oct 13 11:28:16 CDT 2011
User: Helimak
Dark Spectrum Present: No
Reference Spectrum Present: No
Number of Sampled Component Spectra: 1
Spectrometers: USB2G37154
Integration Time (usec): 20000 (USB2G37154)
Spectra Averaged: 1 (USB2G37154)
Boxcar Smoothing: 0 (USB2G37154)
Correct for Electrical Dark: No (USB2G37154)
Strobe/Lamp Enabled: No (USB2G37154)
Correct for Detector Non-linearity: No (USB2G37154)
Correct for Stray Light: No (USB2G37154)
Number of Pixels in Processed Spectrum: 651
>>>>>Begin Processed Spectral Data<<<<<
350.00	206.08
351.00	207.94
352.00	203.96
353.00	200.08
354.00	203.60
355.00	202.99
356.00	206.76
357.00	207.96
358.00	202.97
359.00	202.43
360.00	205.68
361.00	204.80
362.00	203.62
363.00	210.60
364.00	203.13
365.00	202.30
366.00	206.10
367.00	204.98
368.00	204.97
369.00	208.36
370.00	206.01
371.00	206.36
372.00	205.16
373.00	201.15
374.00	204.53
375.00	204.02
376.00	206.30
377.00	204.14
378.00	206.93
379.00	203.77
380.00	208.37
381.00	203.64
382.00	204.29
383.00	208.88
384.00	204.05
385.00	204.42
386.00	210.07
387.00	206.58
388.00	211.11
389.00	209.65
390.00	204.61
391.00	205.64
392.00	206.75
393.00	208.25
394.00	210.64
395.00	209.33
396.00	209.95
397.00	210.00
398.00	214.80
399.00	213.60
400.00	214.72
401.00	212.90
402.00	216.27
403.00	216.29
404.00	221.55
405.00	216.86
406.00	215.00
407.00	218.51
408.00	218.98
409.00	220.51
410.00	222.02
411.00	220.72
412.00	219.49
413.00	221.08
414.00	222.74
415.00	220.77
416.00	220.44
417.00	222.22
418.00	223.15
419.00	219.28
420.00	223.87
421.00	223.42
422.00	228.34
423.00	228.98
424.00	228.44
425.00	231.17
426.00	237.19
427.00	234.99
428.00	237.82
429.00	234.10
430.00	240.38
431.00	236.88
432.00	240.13
433.00	245.14
434.00	236.97
435.00	248.12
436.00	244.26
437.00	245.57
438.00	241.21
439.00	241.16
440.00	242.81
441.00	244.92
442.00	247.30
443.00	247.59
444.00	252.89
445.00	253.03
446.00	249.99
447.00	255.87
448.00	254.88
449.00	260.00
450.00	260.44
451.00	262.97
452.00	264.17
453.00	272.06
454.00	272.77
455.00	275.47
456.00	283.41
457.00	282.31
458.00	282.33
459.00	277.84
460.00	286.49
461.00	286.02
462.00	289.42
463.00	294.27
464.00	289.73
465.00	290.32
466.00	294.37
467.00	287.81
468.00	290.09
469.00	293.72
470.00	293.64
471.00	297.53
472.00	302.05
473.00	303.33
474.00	305.40
475.00	309.55
476.00	309.77
477.00	320.18
478.00	327.50
479.00	330.25
480.00	332.00
481.00	338.58
482.00	341.61
483.00	351.29
484.00	356.55
485.00	367.85
486.00	375.05
487.00	381.41
488.00	387.87
489.00	399.84
490.00	403.21
491.00	415.85
492.00	423.74
493.00	424.66
494.00	428.57
495.00	434.13
496.00	432.95
497.00	443.89
498.00	447.61
499.00	442.42
500.00	449.82
501.00	456.94
502.00	455.00
503.00	459.60
504.00	464.61
505.00	458.40
506.00	464.69
507.00	465.32
508.00	461.38
509.00	452.42
510.00	474.21
511.00	471.18
512.00	477.08
513.00	485.96
514.00	485.85
515.00	486.65
516.00	495.06
517.00	499.03
518.00	511.24
519.00	502.08
520.00	516.51
521.00	537.67
522.00	535.42
523.00	543.64
524.00	563.01
525.00	555.96
526.00	576.94
527.00	580.42
528.00	586.14
529.00	598.28
530.00	608.13
531.00	624.15
532.00	632.18
533.00	646.89
534.00	652.46
535.00	667.04
536.00	675.88
537.00	694.30
538.00	692.03
539.00	682.47
540.00	698.25
541.00	690.77
542.00	723.62
543.00	714.63
544.00	714.49
545.00	707.50
546.00	718.90
547.00	710.27
548.00	714.73
549.00	704.59
550.00	718.51
551.00	706.01
552.00	707.92
553.00	721.37
554.00	737.04
555.00	727.31
556.00	722.21
557.00	732.49
558.00	733.13
559.00	738.05
560.00	742.80
561.00	750.28
562.00	763.32
563.00	764.29
564.00	776.62
565.00	781.75
566.00	788.48
567.00	791.03
568.00	797.97
569.00	807.58
570.00	806.54
571.00	828.48
572.00	838.36
573.00	846.51
574.00	873.15
575.00	874.21
576.00	860.80
577.00	881.79
578.00	899.65
579.00	915.62
580.00	922.66
581.00	906.66
582.00	925.39
583.00	939.01
584.00	934.93
585.00	932.45
586.00	944.51
587.00	951.97
588.00	944.31
589.00	950.71
590.00	941.14
591.00	949.09
592.00	953.25
593.00	941.04
594.00	950.00
595.00	951.93
596.00	944.16
597.00	948.82
598.00	947.41
599.00	951.29
600.00	945.37
601.00	947.42
602.00	953.81
603.00	954.18
604.00	937.65
605.00	938.09
606.00	960.22
607.00	950.55
608.00	952.12
609.00	962.91
610.00	948.10
611.00	972.00
612.00	969.06
613.00	964.88
614.00	968.94
615.00	985.62
616.00	980.00
617.00	978.91
618.00	981.96
619.00	989.64
620.00	993.25
621.00	991.43
622.00	987.61
623.00	999.93
624.00	1005.82
625.00	1017.68
626.00	1029.09
627.00	1042.18
628.00	1030.45
629.00	1036.49
630.00	1043.44
631.00	1052.69
632.00	1049.72
633.00	1032.50
634.00	1063.20
635.00	1042.04
636.00	1047.67
637.00	1051.17
638.00	1048.66
639.00	1032.32
640.00	1058.70
641.00	1040.53
642.00	1044.67
643.00	1041.64
644.00	1038.76
645.00	1036.01
646.00	1020.11
647.00	1032.40
648.00	1018.62
649.00	1006.34
650.00	1014.02
651.00	1004.64
652.00	1007.59
653.00	981.54
654.00	989.07
655.00	987.06
656.00	979.23
657.00	962.78
658.00	972.99
659.00	952.73
660.00	949.10
661.00	951.24
662.00	944.94
663.00	957.65
664.00	939.02
665.00	932.76
666.00	919.27
667.00	920.56
668.00	907.41
669.00	904.02
670.00	905.98
671.00	912.80
672.00	904.90
673.00	914.08
674.00	902.13
675.00	900.82
676.00	905.62
677.00	913.33
678.00	907.59
679.00	910.56
680.00	908.85
681.00	888.12
682.00	913.32
683.00	898.30
684.00	901.04
685.00	913.72
686.00	893.71
687.00	882.51
688.00	909.48
689.00	904.31
690.00	897.12
691.00	914.16
692.00	900.26
693.00	902.69
694.00	898.33
695.00	915.43
696.00	906.00
697.00	915.06
698.00	917.70
699.00	918.82
700.00	914.00
701.00	901.99
702.00	902.62
703.00	911.18
704.00	910.67
705.00	896.00
706.00	896.00
707.00	906.42
708.00	895.84
709.00	906.71
710.00	883.69
711.00	893.56
712.00	887.31
713.00	874.98
714.00	866.73
715.00	867.64
716.00	864.10
717.00	862.00
718.00	843.30
719.00	834.56
720.00	830.18
721.00	824.40
722.00	791.79
723.00	796.34
724.00	779.07
725.00	780.30
726.00	783.54
727.00	767.57
728.00	757.30
729.00	753.86
730.00	761.71
731.00	760.39
732.00	750.77
733.00	745.14
734.00	750.32
735.00	749.93
736.00	723.04
737.00	719.82
738.00	730.24
739.00	708.85
740.00	721.28
741.00	709.71
742.00	700.87
743.00	687.78
744.00	692.73
745.00	684.54
746.00	685.01
747.00	673.58
748.00	674.56
749.00	658.64
750.00	666.11
751.00	670.09
752.00	648.26
753.00	647.45
754.00	657.78
755.00	635.01
756.00	628.10
757.00	638.93
758.00	639.43
759.00	643.21
760.00	637.59
761.00	624.12
762.00	625.94
763.00	623.51
764.00	616.07
765.00	608.44
766.00	616.30
767.00	602.90
768.00	605.43
769.00	602.02
770.00	605.70
771.00	595.50
772.00	597.01
773.00	597.78
774.00	593.75
775.00	594.09
776.00	590.63
777.00	589.96
778.00	580.02
779.00	575.93
780.00	562.18
781.00	568.77
782.00	566.50
783.00	573.22
784.00	576.84
785.00	577.92
786.00	579.59
787.00	573.45
788.00	576.38
789.00	589.91
790.00	582.51
791.00	587.35
792.00	587.89
793.00	591.89
794.00	583.17
795.00	587.52
796.00	589.54
797.00	585.23
798.00	603.45
799.00	599.46
800.00	579.44
801.00	590.09
802.00	581.03
803.00	577.64
804.00	587.99
805.00	570.96
806.00	572.01
807.00	564.98
808.00	580.66
809.00	576.97
810.00	573.25
811.00	560.54
812.00	556.87
813.00	553.69
814.00	543.08
815.00	548.33
816.00	537.24
817.00	529.41
818.00	535.21
819.00	532.34
820.00	524.68
821.00	509.78
822.00	527.94
823.00	514.35
824.00	499.54
825.00	500.64
826.00	490.90
827.00	492.78
828.00	491.19
829.00	484.27
830.00	472.78
831.00	476.25
832.00	471.77
833.00	460.54
834.00	452.38
835.00	458.34
836.00	443.17
837.00	446.50
838.00	444.03
839.00	435.19
840.00	441.39
841.00	433.53
842.00	434.11
843.00	427.56
844.00	424.70
845.00	411.42
846.00	412.28
847.00	406.60
848.00	418.21
849.00	410.75
850.00	402.76
851.00	399.57
852.00	402.34
853.00	398.68
854.00	396.80
855.00	395.51
856.00	389.31
857.00	392.96
858.00	388.28
859.00	379.96
860.00	375.10
861.00	375.44
862.00	371.92
863.00	374.70
864.00	363.33
865.00	362.91
866.00	361.38
867.00	364.36
868.00	360.02
869.00	358.98
870.00	353.01
871.00	348.70
872.00	349.04
873.00	342.13
874.00	345.70
875.00	344.85
876.00	337.00
877.00	330.49
878.00	330.16
879.00	333.13
880.00	335.96
881.00	324.01
882.00	330.86
883.00	327.33
884.00	327.00
885.00	324.02
886.00	330.47
887.00	322.55
888.00	320.26
889.00	317.70
890.00	309.98
891.00	313.84
892.00	311.61
893.00	318.66
894.00	313.37
895.00	315.91
896.00	311.37
897.00	312.04
898.00	309.66
899.00	315.61
900.00	310.98
901.00	310.31
902.00	314.48
903.00	312.33
904.00	306.99
905.00	311.60
906.00	313.98
907.00	308.80
908.00	310.13
909.00	311.66
910.00	316.63
911.00	309.11
912.00	303.20
913.00	310.58
914.00	307.62
915.00	307.69
916.00	307.09
917.00	300.46
918.00	308.43
919.00	303.09
920.00	294.12
921.00	299.51
922.00	298.93
923.00	293.04
924.00	296.51
925.00	293.33
926.00	290.01
927.00	285.86
928.00	290.48
929.00	283.29
930.00	278.55
931.00	285.52
932.00	276.46
933.00	273.17
934.00	267.20
935.00	265.92
936.00	263.36
937.00	255.69
938.00	255.41
939.00	247.29
940.00	244.76
941.00	237.90
942.00	236.98
943.00	233.30
944.00	229.94
945.00	227.28
946.00	230.01
947.00	227.92
948.00	225.62
949.00	227.72
950.00	230.46
951.00	229.65
952.00	228.95
953.00	231.51
954.00	229.38
955.00	229.99
956.00	231.51
957.00	230.11
958.00	230.08
959.00	234.97
960.00	230.51
961.00	229.28
962.00	227.15
963.00	234.80
964.00	231.42
965.00	232.06
966.00	223.99
967.00	226.99
968.00	223.93
969.00	229.20
970.00	223.03
971.00	224.84
972.00	224.96
973.00	228.51
974.00	222.81
975.00	223.55
976.00	220.50
977.00	226.23
978.00	224.18
979.00	224.99
980.00	221.44
981.00	222.22
982.00	217.81
983.00	221.76
984.00	215.71
985.00	216.88
986.00	218.67
987.00	217.07
988.00	218.46
989.00	213.99
990.00	216.10
991.00	215.48
992.00	214.38
993.00	212.55
994.00	214.69
995.00	212.97
996.00	213.07
997.00	212.19
998.00	211.72
999.00	216.24
1000.00	209.99
>>>>>End Processed Spectral Data<<<<<
