SpectraSuite Data File
++++++++++++++++++++++++++++++++++++
Date: Tue Oct 18 14:54:17 CDT 2011
User: Helimak
Dark Spectrum Present: No
Reference Spectrum Present: No
Number of Sampled Component Spectra: 1
Spectrometers: USB2G37154
Integration Time (usec): 200000 (USB2G37154)
Spectra Averaged: 1 (USB2G37154)
Boxcar Smoothing: 0 (USB2G37154)
Correct for Electrical Dark: No (USB2G37154)
Strobe/Lamp Enabled: No (USB2G37154)
Correct for Detector Non-linearity: No (USB2G37154)
Correct for Stray Light: No (USB2G37154)
Number of Pixels in Processed Spectrum: 651
>>>>>Begin Processed Spectral Data<<<<<
350.00	200.60
351.00	204.14
352.00	202.45
353.00	205.28
354.00	200.85
355.00	201.24
356.00	202.11
357.00	201.07
358.00	209.69
359.00	203.14
360.00	204.28
361.00	206.83
362.00	208.19
363.00	201.08
364.00	205.85
365.00	207.69
366.00	204.08
367.00	206.87
368.00	204.50
369.00	203.28
370.00	205.09
371.00	205.61
372.00	207.72
373.00	208.86
374.00	210.53
375.00	213.33
376.00	205.76
377.00	206.33
378.00	214.25
379.00	208.93
380.00	203.81
381.00	214.72
382.00	210.92
383.00	216.99
384.00	220.41
385.00	218.63
386.00	218.06
387.00	219.79
388.00	215.69
389.00	218.32
390.00	217.17
391.00	215.77
392.00	220.60
393.00	218.00
394.00	221.11
395.00	215.70
396.00	215.93
397.00	216.35
398.00	217.33
399.00	217.36
400.00	225.68
401.00	233.15
402.00	238.21
403.00	242.77
404.00	240.61
405.00	228.84
406.00	236.01
407.00	242.07
408.00	225.13
409.00	229.53
410.00	228.51
411.00	221.40
412.00	224.49
413.00	226.92
414.00	218.86
415.00	253.00
416.00	243.59
417.00	237.63
418.00	249.89
419.00	291.03
420.00	268.81
421.00	235.78
422.00	245.80
423.00	237.45
424.00	233.21
425.00	278.32
426.00	307.31
427.00	301.48
428.00	265.06
429.00	259.82
430.00	251.28
431.00	242.50
432.00	263.16
433.00	290.24
434.00	413.30
435.00	318.07
436.00	269.05
437.00	269.27
438.00	248.84
439.00	267.15
440.00	258.86
441.00	253.35
442.00	329.38
443.00	269.21
444.00	239.72
445.00	226.12
446.00	228.90
447.00	241.67
448.00	237.67
449.00	234.94
450.00	246.16
451.00	249.88
452.00	247.46
453.00	249.99
454.00	278.02
455.00	256.67
456.00	257.66
457.00	276.88
458.00	310.40
459.00	281.25
460.00	341.63
461.00	289.08
462.00	252.15
463.00	244.91
464.00	239.67
465.00	265.07
466.00	251.85
467.00	243.16
468.00	240.30
469.00	241.26
470.00	238.68
471.00	242.34
472.00	275.30
473.00	277.35
474.00	253.28
475.00	246.51
476.00	278.76
477.00	248.83
478.00	235.44
479.00	242.67
480.00	356.76
481.00	280.91
482.00	254.76
483.00	242.84
484.00	270.55
485.00	288.80
486.00	293.39
487.00	418.05
488.00	385.75
489.00	303.37
490.00	263.88
491.00	261.83
492.00	260.73
493.00	263.82
494.00	254.71
495.00	248.00
496.00	274.20
497.00	259.39
498.00	248.03
499.00	249.69
500.00	267.65
501.00	283.57
502.00	257.01
503.00	250.09
504.00	271.19
505.00	279.82
506.00	279.73
507.00	279.30
508.00	274.22
509.00	264.25
510.00	254.23
511.00	257.07
512.00	250.68
513.00	256.95
514.00	276.16
515.00	256.95
516.00	260.27
517.00	250.07
518.00	259.38
519.00	254.15
520.00	243.46
521.00	243.84
522.00	250.99
523.00	246.70
524.00	249.63
525.00	251.92
526.00	249.47
527.00	244.18
528.00	247.12
529.00	243.66
530.00	239.88
531.00	247.37
532.00	249.15
533.00	253.43
534.00	258.84
535.00	266.08
536.00	259.96
537.00	259.57
538.00	254.34
539.00	254.39
540.00	250.03
541.00	251.89
542.00	252.96
543.00	249.80
544.00	248.14
545.00	254.43
546.00	253.93
547.00	272.08
548.00	254.90
549.00	271.87
550.00	269.59
551.00	264.95
552.00	255.65
553.00	251.78
554.00	247.79
555.00	258.85
556.00	267.12
557.00	255.06
558.00	243.76
559.00	239.42
560.00	254.49
561.00	249.99
562.00	242.16
563.00	238.78
564.00	239.06
565.00	251.04
566.00	247.95
567.00	252.59
568.00	250.93
569.00	246.47
570.00	247.78
571.00	249.73
572.00	232.69
573.00	240.00
574.00	247.64
575.00	237.58
576.00	235.22
577.00	238.76
578.00	232.11
579.00	234.59
580.00	240.92
581.00	233.92
582.00	233.21
583.00	240.21
584.00	233.35
585.00	234.98
586.00	238.63
587.00	238.04
588.00	250.83
589.00	256.37
590.00	244.74
591.00	247.22
592.00	240.12
593.00	237.31
594.00	234.04
595.00	229.72
596.00	223.59
597.00	229.55
598.00	237.10
599.00	235.89
600.00	238.17
601.00	244.10
602.00	241.43
603.00	301.35
604.00	285.17
605.00	256.21
606.00	248.05
607.00	234.26
608.00	224.64
609.00	227.05
610.00	231.94
611.00	249.01
612.00	242.06
613.00	233.88
614.00	229.44
615.00	232.72
616.00	231.98
617.00	247.95
618.00	239.03
619.00	241.20
620.00	232.84
621.00	237.14
622.00	230.28
623.00	224.21
624.00	236.15
625.00	240.28
626.00	237.12
627.00	232.50
628.00	233.99
629.00	235.89
630.00	234.32
631.00	239.97
632.00	224.77
633.00	228.43
634.00	225.28
635.00	222.99
636.00	223.74
637.00	221.01
638.00	225.93
639.00	229.92
640.00	233.82
641.00	234.02
642.00	242.01
643.00	233.03
644.00	226.85
645.00	224.11
646.00	227.03
647.00	224.99
648.00	230.06
649.00	219.84
650.00	215.88
651.00	217.94
652.00	216.50
653.00	218.12
654.00	222.63
655.00	221.57
656.00	299.29
657.00	280.85
658.00	240.99
659.00	218.61
660.00	223.71
661.00	217.90
662.00	215.26
663.00	213.63
664.00	230.22
665.00	224.09
666.00	215.89
667.00	224.98
668.00	225.88
669.00	219.06
670.00	217.22
671.00	212.18
672.00	214.12
673.00	220.00
674.00	212.12
675.00	234.75
676.00	243.68
677.00	218.04
678.00	217.33
679.00	212.13
680.00	206.49
681.00	215.33
682.00	217.85
683.00	214.07
684.00	220.87
685.00	218.11
686.00	208.95
687.00	229.09
688.00	225.82
689.00	223.07
690.00	213.99
691.00	214.31
692.00	215.06
693.00	217.21
694.00	233.09
695.00	224.06
696.00	245.01
697.00	330.27
698.00	248.56
699.00	229.54
700.00	218.20
701.00	220.89
702.00	216.40
703.00	236.52
704.00	226.21
705.00	216.17
706.00	218.24
707.00	282.44
708.00	239.52
709.00	223.92
710.00	208.75
711.00	214.90
712.00	215.85
713.00	213.62
714.00	207.74
715.00	218.84
716.00	216.67
717.00	213.41
718.00	205.50
719.00	211.07
720.00	212.50
721.00	216.93
722.00	214.37
723.00	215.10
724.00	210.80
725.00	233.18
726.00	213.23
727.00	221.66
728.00	232.43
729.00	217.41
730.00	210.15
731.00	210.37
732.00	213.05
733.00	208.78
734.00	211.09
735.00	216.93
736.00	224.47
737.00	230.62
738.00	264.31
739.00	303.48
740.00	236.84
741.00	215.71
742.00	214.00
743.00	214.98
744.00	216.69
745.00	220.28
746.00	206.14
747.00	212.26
748.00	210.35
749.00	214.67
750.00	249.14
751.00	486.22
752.00	417.15
753.00	291.28
754.00	225.58
755.00	209.81
756.00	209.75
757.00	208.59
758.00	214.34
759.00	216.48
760.00	207.86
761.00	209.09
762.00	214.08
763.00	236.56
764.00	698.44
765.00	409.11
766.00	278.65
767.00	217.55
768.00	206.18
769.00	201.72
770.00	207.77
771.00	207.08
772.00	215.03
773.00	319.59
774.00	243.02
775.00	225.60
776.00	210.02
777.00	213.31
778.00	260.98
779.00	231.91
780.00	213.33
781.00	206.89
782.00	205.31
783.00	207.98
784.00	207.62
785.00	209.14
786.00	212.95
787.00	212.48
788.00	209.25
789.00	214.01
790.00	212.41
791.00	213.54
792.00	208.82
793.00	209.47
794.00	209.15
795.00	287.53
796.00	287.15
797.00	236.13
798.00	220.42
799.00	209.59
800.00	208.63
801.00	280.04
802.00	368.36
803.00	279.50
804.00	229.51
805.00	213.93
806.00	212.12
807.00	206.98
808.00	204.19
809.00	211.08
810.00	213.42
811.00	363.57
812.00	1330.82
813.00	849.11
814.00	403.15
815.00	283.45
816.00	217.09
817.00	214.24
818.00	207.06
819.00	208.48
820.00	203.32
821.00	206.91
822.00	212.04
823.00	212.14
824.00	202.40
825.00	214.63
826.00	207.95
827.00	255.22
828.00	234.61
829.00	215.45
830.00	207.93
831.00	205.94
832.00	209.99
833.00	205.77
834.00	205.96
835.00	208.06
836.00	203.35
837.00	204.74
838.00	203.79
839.00	204.78
840.00	206.15
841.00	240.93
842.00	266.09
843.00	362.29
844.00	289.36
845.00	240.03
846.00	222.29
847.00	211.36
848.00	204.34
849.00	204.28
850.00	202.31
851.00	203.55
852.00	211.85
853.00	242.03
854.00	217.07
855.00	208.65
856.00	211.54
857.00	202.01
858.00	209.16
859.00	204.96
860.00	202.64
861.00	209.57
862.00	206.00
863.00	206.67
864.00	210.19
865.00	210.44
866.00	204.60
867.00	209.29
868.00	209.00
869.00	206.91
870.00	203.85
871.00	202.02
872.00	203.73
873.00	202.72
874.00	201.74
875.00	205.87
876.00	205.23
877.00	204.59
878.00	200.79
879.00	204.88
880.00	209.02
881.00	203.73
882.00	203.85
883.00	200.58
884.00	206.01
885.00	203.71
886.00	204.99
887.00	207.53
888.00	201.97
889.00	205.27
890.00	203.24
891.00	208.75
892.00	205.70
893.00	202.26
894.00	203.39
895.00	205.93
896.00	203.04
897.00	204.12
898.00	202.20
899.00	198.11
900.00	208.36
901.00	209.35
902.00	203.72
903.00	207.97
904.00	200.82
905.00	201.22
906.00	208.76
907.00	206.27
908.00	206.44
909.00	203.30
910.00	207.15
911.00	203.17
912.00	211.19
913.00	275.25
914.00	247.11
915.00	232.03
916.00	216.99
917.00	212.04
918.00	203.48
919.00	206.56
920.00	202.20
921.00	203.97
922.00	205.46
923.00	212.19
924.00	214.34
925.00	208.78
926.00	208.01
927.00	208.24
928.00	202.09
929.00	202.86
930.00	203.18
931.00	204.93
932.00	200.41
933.00	202.71
934.00	205.22
935.00	204.15
936.00	198.80
937.00	204.91
938.00	205.24
939.00	215.76
940.00	201.32
941.00	207.95
942.00	203.11
943.00	202.20
944.00	203.06
945.00	208.17
946.00	205.13
947.00	202.14
948.00	202.86
949.00	202.43
950.00	203.51
951.00	206.29
952.00	202.97
953.00	202.41
954.00	200.95
955.00	203.64
956.00	204.37
957.00	204.54
958.00	205.45
959.00	199.89
960.00	206.44
961.00	205.12
962.00	202.72
963.00	202.05
964.00	207.70
965.00	202.34
966.00	204.97
967.00	211.33
968.00	211.00
969.00	204.90
970.00	201.71
971.00	208.16
972.00	204.26
973.00	207.28
974.00	205.72
975.00	203.76
976.00	201.84
977.00	200.25
978.00	206.40
979.00	203.63
980.00	200.53
981.00	203.48
982.00	202.34
983.00	209.33
984.00	199.99
985.00	205.96
986.00	203.94
987.00	203.38
988.00	202.86
989.00	209.23
990.00	205.06
991.00	206.99
992.00	204.58
993.00	202.28
994.00	203.99
995.00	201.24
996.00	202.82
997.00	205.51
998.00	199.77
999.00	203.15
1000.00	201.11
>>>>>End Processed Spectral Data<<<<<
