SpectraSuite Data File
++++++++++++++++++++++++++++++++++++
Date: Tue Oct 18 14:45:27 CDT 2011
User: Helimak
Dark Spectrum Present: No
Reference Spectrum Present: No
Number of Sampled Component Spectra: 1
Spectrometers: USB2G37154
Integration Time (usec): 200000 (USB2G37154)
Spectra Averaged: 1 (USB2G37154)
Boxcar Smoothing: 0 (USB2G37154)
Correct for Electrical Dark: No (USB2G37154)
Strobe/Lamp Enabled: No (USB2G37154)
Correct for Detector Non-linearity: No (USB2G37154)
Correct for Stray Light: No (USB2G37154)
Number of Pixels in Processed Spectrum: 651
>>>>>Begin Processed Spectral Data<<<<<
350.00	201.42
351.00	201.11
352.00	202.24
353.00	201.05
354.00	205.86
355.00	204.76
356.00	202.81
357.00	201.85
358.00	209.01
359.00	205.04
360.00	203.88
361.00	205.41
362.00	211.24
363.00	204.08
364.00	208.56
365.00	207.81
366.00	202.47
367.00	208.88
368.00	205.38
369.00	208.54
370.00	205.07
371.00	203.55
372.00	207.98
373.00	214.80
374.00	207.34
375.00	211.00
376.00	213.25
377.00	214.57
378.00	218.93
379.00	218.72
380.00	217.09
381.00	221.39
382.00	220.67
383.00	219.92
384.00	224.21
385.00	221.77
386.00	218.99
387.00	228.62
388.00	219.94
389.00	220.91
390.00	220.62
391.00	222.57
392.00	224.76
393.00	224.00
394.00	231.40
395.00	222.82
396.00	227.00
397.00	221.96
398.00	219.56
399.00	215.14
400.00	237.87
401.00	249.10
402.00	250.28
403.00	255.22
404.00	262.96
405.00	243.41
406.00	257.02
407.00	264.61
408.00	243.23
409.00	245.04
410.00	244.85
411.00	227.82
412.00	234.89
413.00	234.21
414.00	230.16
415.00	282.36
416.00	260.41
417.00	251.43
418.00	271.91
419.00	358.13
420.00	309.19
421.00	247.97
422.00	270.55
423.00	257.13
424.00	246.69
425.00	323.00
426.00	358.78
427.00	354.81
428.00	286.32
429.00	289.14
430.00	279.33
431.00	256.54
432.00	288.85
433.00	343.98
434.00	611.93
435.00	424.65
436.00	316.89
437.00	298.36
438.00	272.67
439.00	313.15
440.00	291.73
441.00	284.29
442.00	433.63
443.00	324.45
444.00	260.13
445.00	237.92
446.00	242.08
447.00	254.86
448.00	250.55
449.00	244.05
450.00	251.84
451.00	262.84
452.00	261.13
453.00	268.76
454.00	315.96
455.00	284.63
456.00	276.75
457.00	302.11
458.00	364.42
459.00	334.29
460.00	437.08
461.00	341.97
462.00	277.41
463.00	259.61
464.00	244.89
465.00	294.48
466.00	271.79
467.00	251.05
468.00	257.46
469.00	257.80
470.00	254.64
471.00	259.39
472.00	307.25
473.00	326.67
474.00	269.87
475.00	262.67
476.00	319.51
477.00	263.50
478.00	250.43
479.00	257.23
480.00	474.20
481.00	328.80
482.00	269.14
483.00	254.84
484.00	297.72
485.00	327.93
486.00	332.51
487.00	590.36
488.00	509.72
489.00	339.66
490.00	287.48
491.00	272.51
492.00	267.41
493.00	283.77
494.00	259.23
495.00	262.63
496.00	316.80
497.00	278.45
498.00	259.98
499.00	259.53
500.00	304.39
501.00	339.21
502.00	282.03
503.00	266.00
504.00	283.70
505.00	304.07
506.00	305.37
507.00	300.17
508.00	305.21
509.00	281.17
510.00	265.32
511.00	263.95
512.00	256.98
513.00	264.92
514.00	318.62
515.00	277.02
516.00	273.33
517.00	261.47
518.00	285.77
519.00	270.25
520.00	253.87
521.00	258.00
522.00	264.41
523.00	254.64
524.00	251.46
525.00	268.01
526.00	260.27
527.00	252.01
528.00	250.86
529.00	248.30
530.00	241.91
531.00	253.08
532.00	261.45
533.00	266.96
534.00	269.21
535.00	283.03
536.00	267.94
537.00	268.18
538.00	260.90
539.00	258.76
540.00	263.84
541.00	264.32
542.00	263.43
543.00	261.17
544.00	266.55
545.00	279.21
546.00	277.57
547.00	282.11
548.00	264.96
549.00	299.90
550.00	295.10
551.00	277.97
552.00	272.01
553.00	261.78
554.00	260.39
555.00	277.89
556.00	281.23
557.00	271.52
558.00	249.99
559.00	254.63
560.00	273.93
561.00	258.57
562.00	251.10
563.00	239.54
564.00	251.25
565.00	261.24
566.00	265.19
567.00	263.97
568.00	269.97
569.00	268.96
570.00	253.56
571.00	256.69
572.00	239.96
573.00	246.92
574.00	256.67
575.00	251.02
576.00	247.17
577.00	251.35
578.00	245.48
579.00	240.40
580.00	244.48
581.00	235.06
582.00	233.69
583.00	246.30
584.00	240.95
585.00	239.75
586.00	248.25
587.00	246.08
588.00	263.58
589.00	275.96
590.00	252.44
591.00	258.35
592.00	246.24
593.00	250.86
594.00	246.02
595.00	234.81
596.00	233.98
597.00	234.98
598.00	243.13
599.00	249.73
600.00	249.53
601.00	256.95
602.00	256.29
603.00	359.40
604.00	317.31
605.00	278.95
606.00	262.73
607.00	239.95
608.00	231.61
609.00	232.87
610.00	246.22
611.00	266.68
612.00	261.87
613.00	242.30
614.00	238.00
615.00	243.67
616.00	244.81
617.00	277.93
618.00	255.95
619.00	249.10
620.00	236.00
621.00	250.50
622.00	240.37
623.00	225.98
624.00	243.91
625.00	252.84
626.00	248.88
627.00	246.10
628.00	241.74
629.00	243.39
630.00	246.77
631.00	245.46
632.00	234.03
633.00	234.37
634.00	232.51
635.00	227.98
636.00	230.43
637.00	231.03
638.00	233.63
639.00	231.46
640.00	236.53
641.00	243.20
642.00	270.27
643.00	234.69
644.00	229.49
645.00	233.84
646.00	236.04
647.00	230.04
648.00	236.55
649.00	230.90
650.00	224.07
651.00	221.05
652.00	224.15
653.00	226.92
654.00	231.61
655.00	230.74
656.00	332.74
657.00	315.38
658.00	252.99
659.00	227.66
660.00	226.74
661.00	223.73
662.00	218.00
663.00	218.27
664.00	250.30
665.00	242.53
666.00	229.76
667.00	225.58
668.00	238.00
669.00	228.85
670.00	220.65
671.00	222.54
672.00	222.74
673.00	221.99
674.00	223.17
675.00	252.83
676.00	263.98
677.00	232.25
678.00	221.96
679.00	217.50
680.00	218.90
681.00	215.18
682.00	218.73
683.00	215.68
684.00	223.30
685.00	220.00
686.00	213.78
687.00	236.61
688.00	234.95
689.00	227.07
690.00	217.42
691.00	218.25
692.00	219.11
693.00	221.51
694.00	237.24
695.00	234.07
696.00	258.01
697.00	398.83
698.00	272.93
699.00	231.70
700.00	221.83
701.00	217.26
702.00	218.24
703.00	250.03
704.00	239.04
705.00	225.01
706.00	225.41
707.00	330.11
708.00	260.66
709.00	227.58
710.00	212.93
711.00	220.47
712.00	217.75
713.00	216.15
714.00	215.90
715.00	229.25
716.00	224.10
717.00	217.50
718.00	214.88
719.00	212.03
720.00	213.03
721.00	216.83
722.00	217.67
723.00	215.55
724.00	214.34
725.00	233.74
726.00	213.03
727.00	225.14
728.00	244.32
729.00	219.51
730.00	213.55
731.00	224.42
732.00	216.31
733.00	219.29
734.00	211.98
735.00	221.81
736.00	229.32
737.00	242.85
738.00	289.88
739.00	379.76
740.00	261.20
741.00	226.13
742.00	215.98
743.00	215.07
744.00	225.11
745.00	218.21
746.00	210.21
747.00	215.76
748.00	209.96
749.00	218.18
750.00	275.90
751.00	664.11
752.00	527.80
753.00	325.62
754.00	232.85
755.00	213.87
756.00	212.88
757.00	213.98
758.00	213.81
759.00	210.50
760.00	211.87
761.00	213.09
762.00	218.20
763.00	248.23
764.00	1039.17
765.00	543.34
766.00	318.11
767.00	228.96
768.00	208.08
769.00	206.93
770.00	210.89
771.00	211.44
772.00	217.94
773.00	378.81
774.00	278.07
775.00	233.97
776.00	211.47
777.00	218.47
778.00	301.98
779.00	247.70
780.00	216.80
781.00	208.11
782.00	210.44
783.00	206.94
784.00	207.27
785.00	209.05
786.00	211.59
787.00	209.70
788.00	209.10
789.00	217.96
790.00	223.79
791.00	212.80
792.00	211.50
793.00	208.48
794.00	213.51
795.00	336.65
796.00	346.88
797.00	252.25
798.00	230.51
799.00	208.32
800.00	210.09
801.00	317.14
802.00	475.91
803.00	332.36
804.00	246.53
805.00	214.76
806.00	215.71
807.00	211.07
808.00	212.89
809.00	216.27
810.00	223.05
811.00	458.06
812.00	2052.50
813.00	1204.37
814.00	526.02
815.00	321.84
816.00	220.08
817.00	213.25
818.00	209.19
819.00	203.24
820.00	206.45
821.00	201.00
822.00	210.89
823.00	207.99
824.00	206.20
825.00	214.37
826.00	210.70
827.00	286.31
828.00	248.73
829.00	223.79
830.00	217.82
831.00	205.53
832.00	203.61
833.00	207.85
834.00	205.91
835.00	207.80
836.00	212.68
837.00	207.85
838.00	203.74
839.00	204.85
840.00	205.53
841.00	271.10
842.00	302.48
843.00	459.61
844.00	336.54
845.00	260.48
846.00	235.40
847.00	211.36
848.00	208.38
849.00	206.16
850.00	206.06
851.00	202.54
852.00	214.30
853.00	265.18
854.00	221.47
855.00	208.59
856.00	217.44
857.00	205.41
858.00	208.24
859.00	204.27
860.00	200.67
861.00	210.63
862.00	209.24
863.00	209.50
864.00	208.78
865.00	205.90
866.00	205.00
867.00	213.53
868.00	212.03
869.00	212.84
870.00	205.30
871.00	202.26
872.00	209.94
873.00	202.69
874.00	207.02
875.00	203.08
876.00	208.81
877.00	206.94
878.00	205.14
879.00	205.29
880.00	202.06
881.00	200.20
882.00	205.77
883.00	201.65
884.00	205.00
885.00	203.12
886.00	202.21
887.00	206.32
888.00	199.17
889.00	205.96
890.00	204.56
891.00	208.12
892.00	214.81
893.00	204.56
894.00	205.40
895.00	204.81
896.00	202.32
897.00	203.00
898.00	205.65
899.00	206.46
900.00	206.12
901.00	205.73
902.00	201.80
903.00	209.65
904.00	203.99
905.00	205.12
906.00	209.90
907.00	205.48
908.00	208.15
909.00	208.49
910.00	203.65
911.00	209.74
912.00	215.19
913.00	330.25
914.00	275.75
915.00	244.31
916.00	230.06
917.00	211.68
918.00	208.72
919.00	206.26
920.00	204.09
921.00	206.53
922.00	207.29
923.00	218.12
924.00	214.47
925.00	215.63
926.00	207.99
927.00	209.04
928.00	199.96
929.00	202.00
930.00	204.47
931.00	204.40
932.00	203.86
933.00	202.99
934.00	205.27
935.00	205.30
936.00	201.65
937.00	203.94
938.00	203.69
939.00	209.51
940.00	206.58
941.00	203.36
942.00	211.94
943.00	209.08
944.00	200.99
945.00	208.92
946.00	201.78
947.00	203.90
948.00	202.20
949.00	202.62
950.00	202.99
951.00	202.39
952.00	203.01
953.00	202.05
954.00	200.66
955.00	205.51
956.00	205.75
957.00	207.71
958.00	204.06
959.00	202.92
960.00	202.64
961.00	206.79
962.00	204.92
963.00	201.34
964.00	203.00
965.00	204.35
966.00	204.91
967.00	206.96
968.00	212.98
969.00	204.89
970.00	201.64
971.00	206.35
972.00	208.03
973.00	208.66
974.00	202.14
975.00	202.20
976.00	205.27
977.00	206.75
978.00	202.85
979.00	200.21
980.00	204.33
981.00	204.57
982.00	208.04
983.00	205.96
984.00	201.39
985.00	206.74
986.00	203.05
987.00	206.62
988.00	204.79
989.00	205.83
990.00	202.00
991.00	202.74
992.00	206.58
993.00	206.57
994.00	203.84
995.00	201.83
996.00	200.10
997.00	204.14
998.00	205.83
999.00	204.03
1000.00	201.12
>>>>>End Processed Spectral Data<<<<<
