SpectraSuite Data File
++++++++++++++++++++++++++++++++++++
Date: Tue Oct 18 14:30:41 CDT 2011
User: Helimak
Dark Spectrum Present: No
Reference Spectrum Present: No
Number of Sampled Component Spectra: 1
Spectrometers: USB2G37154
Integration Time (usec): 200000 (USB2G37154)
Spectra Averaged: 1 (USB2G37154)
Boxcar Smoothing: 0 (USB2G37154)
Correct for Electrical Dark: No (USB2G37154)
Strobe/Lamp Enabled: No (USB2G37154)
Correct for Detector Non-linearity: No (USB2G37154)
Correct for Stray Light: No (USB2G37154)
Number of Pixels in Processed Spectrum: 651
>>>>>Begin Processed Spectral Data<<<<<
350.00	205.24
351.00	198.81
352.00	204.26
353.00	207.88
354.00	204.29
355.00	209.46
356.00	208.35
357.00	206.20
358.00	215.08
359.00	207.96
360.00	211.27
361.00	210.71
362.00	212.54
363.00	209.82
364.00	209.06
365.00	212.07
366.00	209.37
367.00	210.09
368.00	210.81
369.00	214.11
370.00	214.05
371.00	211.42
372.00	222.29
373.00	219.78
374.00	219.26
375.00	222.93
376.00	224.31
377.00	233.33
378.00	237.81
379.00	239.92
380.00	247.70
381.00	236.57
382.00	242.89
383.00	246.78
384.00	261.56
385.00	264.01
386.00	264.97
387.00	259.31
388.00	249.05
389.00	239.94
390.00	244.02
391.00	246.78
392.00	267.18
393.00	273.04
394.00	276.39
395.00	254.04
396.00	260.86
397.00	246.04
398.00	249.22
399.00	268.34
400.00	305.63
401.00	343.50
402.00	327.49
403.00	351.51
404.00	365.97
405.00	316.33
406.00	371.09
407.00	402.27
408.00	318.81
409.00	321.55
410.00	334.62
411.00	281.38
412.00	298.79
413.00	292.50
414.00	280.23
415.00	390.81
416.00	341.56
417.00	308.75
418.00	361.15
419.00	582.79
420.00	445.22
421.00	319.11
422.00	411.98
423.00	362.06
424.00	309.11
425.00	506.68
426.00	664.75
427.00	671.65
428.00	457.11
429.00	409.79
430.00	378.69
431.00	335.02
432.00	451.30
433.00	614.33
434.00	1878.74
435.00	1036.41
436.00	604.44
437.00	524.15
438.00	399.63
439.00	578.49
440.00	487.85
441.00	470.52
442.00	1145.60
443.00	647.10
444.00	371.86
445.00	286.81
446.00	284.56
447.00	355.92
448.00	341.69
449.00	302.11
450.00	328.47
451.00	333.15
452.00	317.11
453.00	368.56
454.00	551.16
455.00	408.95
456.00	371.47
457.00	498.27
458.00	806.81
459.00	589.44
460.00	1123.16
461.00	726.46
462.00	416.72
463.00	334.79
464.00	303.04
465.00	481.62
466.00	374.81
467.00	314.57
468.00	301.99
469.00	317.49
470.00	316.64
471.00	323.52
472.00	552.89
473.00	618.37
474.00	387.47
475.00	350.85
476.00	593.38
477.00	378.58
478.00	301.75
479.00	352.47
480.00	1336.11
481.00	617.19
482.00	362.26
483.00	306.49
484.00	512.38
485.00	527.93
486.00	530.34
487.00	1736.29
488.00	1338.81
489.00	623.80
490.00	403.68
491.00	353.14
492.00	350.71
493.00	408.67
494.00	324.08
495.00	324.60
496.00	550.11
497.00	394.42
498.00	320.59
499.00	313.54
500.00	490.46
501.00	609.20
502.00	406.11
503.00	326.25
504.00	370.97
505.00	436.08
506.00	479.69
507.00	430.26
508.00	396.30
509.00	361.14
510.00	324.10
511.00	316.05
512.00	326.49
513.00	362.67
514.00	559.10
515.00	383.73
516.00	352.77
517.00	318.26
518.00	361.36
519.00	337.95
520.00	295.02
521.00	309.04
522.00	320.19
523.00	302.07
524.00	308.19
525.00	321.50
526.00	312.84
527.00	292.45
528.00	298.04
529.00	287.38
530.00	283.90
531.00	297.45
532.00	308.75
533.00	321.12
534.00	322.44
535.00	333.92
536.00	328.95
537.00	329.36
538.00	320.58
539.00	313.77
540.00	311.99
541.00	316.89
542.00	320.89
543.00	316.21
544.00	323.66
545.00	351.49
546.00	345.10
547.00	352.32
548.00	332.98
549.00	414.59
550.00	391.37
551.00	356.92
552.00	327.09
553.00	318.91
554.00	313.31
555.00	358.03
556.00	373.05
557.00	347.75
558.00	302.56
559.00	301.52
560.00	340.38
561.00	312.14
562.00	286.73
563.00	277.19
564.00	287.02
565.00	333.29
566.00	303.62
567.00	313.33
568.00	312.40
569.00	323.13
570.00	310.63
571.00	299.64
572.00	280.75
573.00	287.42
574.00	307.33
575.00	279.76
576.00	273.60
577.00	297.78
578.00	293.98
579.00	279.64
580.00	286.97
581.00	262.93
582.00	261.89
583.00	283.04
584.00	271.95
585.00	269.75
586.00	278.87
587.00	273.07
588.00	310.24
589.00	351.89
590.00	292.09
591.00	300.68
592.00	284.73
593.00	296.03
594.00	282.04
595.00	262.86
596.00	260.90
597.00	268.48
598.00	272.89
599.00	285.62
600.00	290.27
601.00	296.01
602.00	302.15
603.00	543.94
604.00	454.58
605.00	363.00
606.00	328.83
607.00	276.79
608.00	256.47
609.00	261.79
610.00	296.75
611.00	398.80
612.00	363.19
613.00	289.09
614.00	280.33
615.00	285.18
616.00	283.80
617.00	401.80
618.00	309.11
619.00	265.71
620.00	266.69
621.00	295.68
622.00	276.40
623.00	255.26
624.00	298.06
625.00	297.42
626.00	282.41
627.00	273.97
628.00	270.94
629.00	274.01
630.00	292.68
631.00	288.09
632.00	255.34
633.00	249.52
634.00	243.80
635.00	246.10
636.00	251.02
637.00	257.57
638.00	255.71
639.00	255.37
640.00	268.87
641.00	291.40
642.00	328.96
643.00	277.82
644.00	264.41
645.00	250.83
646.00	259.00
647.00	258.91
648.00	262.41
649.00	251.60
650.00	243.79
651.00	242.17
652.00	250.32
653.00	243.66
654.00	256.90
655.00	249.85
656.00	502.74
657.00	454.80
658.00	321.97
659.00	253.96
660.00	246.14
661.00	243.91
662.00	234.26
663.00	228.03
664.00	339.93
665.00	325.29
666.00	264.84
667.00	248.21
668.00	287.53
669.00	281.86
670.00	239.62
671.00	231.31
672.00	237.32
673.00	232.03
674.00	229.17
675.00	324.10
676.00	346.16
677.00	259.57
678.00	234.83
679.00	233.97
680.00	227.97
681.00	230.14
682.00	234.37
683.00	224.12
684.00	230.36
685.00	228.32
686.00	230.39
687.00	298.70
688.00	287.30
689.00	269.00
690.00	230.51
691.00	231.75
692.00	227.23
693.00	235.65
694.00	288.17
695.00	256.98
696.00	336.03
697.00	659.19
698.00	347.76
699.00	261.24
700.00	240.33
701.00	232.25
702.00	235.39
703.00	310.14
704.00	290.55
705.00	248.84
706.00	239.19
707.00	511.04
708.00	333.01
709.00	259.96
710.00	224.26
711.00	239.67
712.00	231.36
713.00	223.61
714.00	219.64
715.00	262.72
716.00	245.88
717.00	228.85
718.00	217.06
719.00	219.57
720.00	218.73
721.00	230.89
722.00	223.30
723.00	229.69
724.00	234.76
725.00	242.84
726.00	224.73
727.00	257.98
728.00	298.05
729.00	243.80
730.00	228.77
731.00	225.91
732.00	230.98
733.00	224.03
734.00	221.54
735.00	236.67
736.00	271.46
737.00	292.56
738.00	410.08
739.00	617.44
740.00	353.92
741.00	256.49
742.00	228.01
743.00	230.07
744.00	245.26
745.00	243.78
746.00	215.22
747.00	218.32
748.00	224.35
749.00	227.74
750.00	380.25
751.00	1349.81
752.00	991.56
753.00	480.08
754.00	277.48
755.00	225.51
756.00	213.71
757.00	216.34
758.00	217.89
759.00	217.68
760.00	225.42
761.00	223.61
762.00	226.74
763.00	308.35
764.00	2205.10
765.00	1022.88
766.00	489.48
767.00	264.46
768.00	222.21
769.00	214.57
770.00	212.53
771.00	214.21
772.00	245.01
773.00	636.47
774.00	370.73
775.00	270.90
776.00	221.92
777.00	247.96
778.00	463.04
779.00	311.57
780.00	248.50
781.00	212.42
782.00	209.25
783.00	209.73
784.00	210.24
785.00	211.77
786.00	218.79
787.00	222.82
788.00	217.20
789.00	230.00
790.00	231.85
791.00	225.32
792.00	221.80
793.00	221.64
794.00	219.91
795.00	506.59
796.00	513.69
797.00	313.41
798.00	253.99
799.00	225.01
800.00	217.56
801.00	462.58
802.00	841.01
803.00	496.93
804.00	311.58
805.00	237.32
806.00	226.03
807.00	220.87
808.00	218.41
809.00	227.91
810.00	256.19
811.00	764.29
812.00	3924.74
813.00	2412.47
814.00	911.77
815.00	467.64
816.00	239.91
817.00	221.77
818.00	215.11
819.00	217.59
820.00	211.37
821.00	210.05
822.00	207.20
823.00	213.14
824.00	211.09
825.00	218.79
826.00	216.08
827.00	407.62
828.00	302.12
829.00	242.21
830.00	220.16
831.00	209.27
832.00	211.54
833.00	201.89
834.00	211.21
835.00	213.86
836.00	211.97
837.00	208.79
838.00	208.03
839.00	214.82
840.00	220.63
841.00	352.61
842.00	428.86
843.00	828.04
844.00	512.31
845.00	332.20
846.00	281.47
847.00	225.12
848.00	210.12
849.00	205.24
850.00	211.31
851.00	210.19
852.00	229.70
853.00	354.93
854.00	254.29
855.00	228.20
856.00	224.34
857.00	210.59
858.00	207.29
859.00	204.14
860.00	201.27
861.00	216.09
862.00	209.83
863.00	210.99
864.00	214.08
865.00	211.41
866.00	207.17
867.00	218.15
868.00	224.02
869.00	215.17
870.00	211.12
871.00	210.28
872.00	208.10
873.00	206.08
874.00	208.08
875.00	204.04
876.00	207.99
877.00	209.89
878.00	204.98
879.00	199.46
880.00	207.97
881.00	205.01
882.00	206.87
883.00	206.36
884.00	206.00
885.00	206.88
886.00	206.98
887.00	206.61
888.00	204.96
889.00	206.67
890.00	208.49
891.00	208.54
892.00	205.52
893.00	207.93
894.00	205.46
895.00	206.84
896.00	205.15
897.00	202.69
898.00	206.14
899.00	202.19
900.00	208.20
901.00	207.36
902.00	208.24
903.00	208.89
904.00	202.44
905.00	203.17
906.00	209.82
907.00	208.44
908.00	206.53
909.00	208.23
910.00	207.32
911.00	211.80
912.00	243.03
913.00	481.47
914.00	360.86
915.00	299.87
916.00	258.91
917.00	222.12
918.00	207.74
919.00	205.98
920.00	204.68
921.00	207.38
922.00	208.58
923.00	246.52
924.00	234.90
925.00	220.40
926.00	216.99
927.00	211.20
928.00	204.64
929.00	204.86
930.00	209.30
931.00	205.98
932.00	206.27
933.00	205.30
934.00	202.24
935.00	203.04
936.00	204.97
937.00	205.91
938.00	205.23
939.00	205.76
940.00	204.44
941.00	203.33
942.00	206.94
943.00	204.61
944.00	204.16
945.00	209.29
946.00	202.22
947.00	201.11
948.00	204.34
949.00	203.01
950.00	205.46
951.00	204.20
952.00	200.98
953.00	208.25
954.00	203.00
955.00	207.53
956.00	199.69
957.00	200.90
958.00	206.75
959.00	205.94
960.00	208.56
961.00	204.97
962.00	199.55
963.00	205.95
964.00	203.28
965.00	202.50
966.00	206.22
967.00	222.16
968.00	214.03
969.00	208.98
970.00	209.38
971.00	211.52
972.00	206.09
973.00	210.14
974.00	209.00
975.00	204.31
976.00	205.72
977.00	202.52
978.00	204.53
979.00	209.63
980.00	204.49
981.00	206.39
982.00	195.26
983.00	204.65
984.00	203.66
985.00	205.97
986.00	205.23
987.00	203.87
988.00	202.98
989.00	206.14
990.00	200.74
991.00	203.93
992.00	206.54
993.00	204.33
994.00	202.97
995.00	202.74
996.00	200.65
997.00	205.63
998.00	204.26
999.00	201.85
1000.00	201.16
>>>>>End Processed Spectral Data<<<<<
