SpectraSuite Data File
++++++++++++++++++++++++++++++++++++
Date: Tue Oct 18 14:51:56 CDT 2011
User: Helimak
Dark Spectrum Present: No
Reference Spectrum Present: No
Number of Sampled Component Spectra: 1
Spectrometers: USB2G37154
Integration Time (usec): 200000 (USB2G37154)
Spectra Averaged: 1 (USB2G37154)
Boxcar Smoothing: 0 (USB2G37154)
Correct for Electrical Dark: No (USB2G37154)
Strobe/Lamp Enabled: No (USB2G37154)
Correct for Detector Non-linearity: No (USB2G37154)
Correct for Stray Light: No (USB2G37154)
Number of Pixels in Processed Spectrum: 651
>>>>>Begin Processed Spectral Data<<<<<
350.00	201.80
351.00	207.41
352.00	201.06
353.00	202.89
354.00	200.01
355.00	204.83
356.00	205.92
357.00	199.75
358.00	208.93
359.00	207.77
360.00	211.51
361.00	204.11
362.00	210.50
363.00	202.18
364.00	207.69
365.00	207.80
366.00	209.43
367.00	208.72
368.00	208.99
369.00	204.61
370.00	205.03
371.00	210.69
372.00	212.20
373.00	212.24
374.00	208.10
375.00	214.43
376.00	211.82
377.00	213.87
378.00	213.61
379.00	213.09
380.00	219.64
381.00	217.43
382.00	218.14
383.00	217.80
384.00	222.23
385.00	224.46
386.00	221.94
387.00	224.69
388.00	217.87
389.00	216.62
390.00	217.22
391.00	221.21
392.00	225.15
393.00	229.24
394.00	232.69
395.00	220.78
396.00	224.08
397.00	221.04
398.00	221.54
399.00	224.36
400.00	234.48
401.00	244.95
402.00	245.14
403.00	262.59
404.00	257.77
405.00	245.90
406.00	248.02
407.00	256.80
408.00	244.15
409.00	242.09
410.00	241.69
411.00	234.34
412.00	233.46
413.00	234.31
414.00	230.49
415.00	275.31
416.00	266.61
417.00	247.94
418.00	269.13
419.00	346.10
420.00	294.18
421.00	249.86
422.00	267.36
423.00	250.30
424.00	251.82
425.00	313.39
426.00	350.19
427.00	347.64
428.00	285.93
429.00	285.11
430.00	277.98
431.00	255.88
432.00	290.40
433.00	336.61
434.00	588.66
435.00	401.61
436.00	312.71
437.00	299.00
438.00	265.80
439.00	299.74
440.00	286.41
441.00	282.43
442.00	406.60
443.00	309.98
444.00	256.10
445.00	235.03
446.00	239.08
447.00	251.70
448.00	248.78
449.00	245.11
450.00	261.75
451.00	259.96
452.00	259.70
453.00	266.78
454.00	312.45
455.00	287.14
456.00	281.44
457.00	304.57
458.00	359.38
459.00	319.48
460.00	430.69
461.00	345.64
462.00	280.61
463.00	256.06
464.00	248.15
465.00	291.51
466.00	271.12
467.00	253.78
468.00	256.29
469.00	256.00
470.00	256.87
471.00	257.90
472.00	302.24
473.00	313.46
474.00	271.05
475.00	266.70
476.00	315.22
477.00	266.38
478.00	251.36
479.00	260.99
480.00	458.99
481.00	318.05
482.00	268.96
483.00	258.91
484.00	302.80
485.00	325.37
486.00	337.70
487.00	571.90
488.00	495.13
489.00	343.43
490.00	289.11
491.00	281.05
492.00	274.93
493.00	283.52
494.00	264.94
495.00	265.39
496.00	310.18
497.00	283.78
498.00	269.86
499.00	266.93
500.00	304.33
501.00	325.12
502.00	283.03
503.00	266.90
504.00	287.93
505.00	301.50
506.00	315.93
507.00	310.29
508.00	302.23
509.00	284.46
510.00	268.42
511.00	264.00
512.00	266.05
513.00	276.19
514.00	317.97
515.00	282.47
516.00	275.49
517.00	263.38
518.00	278.31
519.00	279.53
520.00	252.14
521.00	261.34
522.00	268.60
523.00	257.89
524.00	262.53
525.00	263.89
526.00	261.84
527.00	257.54
528.00	253.31
529.00	249.61
530.00	254.94
531.00	257.41
532.00	266.42
533.00	272.79
534.00	273.62
535.00	287.16
536.00	276.49
537.00	272.06
538.00	267.68
539.00	266.68
540.00	265.81
541.00	266.04
542.00	274.87
543.00	266.92
544.00	269.50
545.00	281.51
546.00	281.66
547.00	287.13
548.00	269.91
549.00	302.04
550.00	298.75
551.00	284.00
552.00	269.44
553.00	267.55
554.00	261.96
555.00	283.91
556.00	292.46
557.00	275.39
558.00	259.97
559.00	255.03
560.00	274.44
561.00	263.31
562.00	250.04
563.00	248.38
564.00	251.62
565.00	266.28
566.00	258.32
567.00	268.08
568.00	272.30
569.00	267.74
570.00	267.33
571.00	267.95
572.00	247.84
573.00	260.01
574.00	261.23
575.00	244.06
576.00	251.72
577.00	253.30
578.00	247.24
579.00	249.54
580.00	246.32
581.00	238.27
582.00	238.02
583.00	244.38
584.00	240.23
585.00	240.95
586.00	245.26
587.00	244.26
588.00	264.52
589.00	277.66
590.00	257.52
591.00	254.23
592.00	254.78
593.00	252.04
594.00	249.01
595.00	234.32
596.00	233.07
597.00	241.10
598.00	245.94
599.00	250.83
600.00	254.46
601.00	259.12
602.00	258.44
603.00	354.61
604.00	325.63
605.00	280.49
606.00	265.90
607.00	240.44
608.00	234.63
609.00	233.82
610.00	245.67
611.00	266.68
612.00	259.95
613.00	245.08
614.00	239.25
615.00	248.76
616.00	243.48
617.00	272.98
618.00	248.09
619.00	246.90
620.00	237.89
621.00	250.92
622.00	241.80
623.00	233.24
624.00	246.49
625.00	254.10
626.00	243.83
627.00	245.38
628.00	248.29
629.00	242.69
630.00	247.31
631.00	250.97
632.00	237.90
633.00	234.06
634.00	225.17
635.00	230.94
636.00	231.20
637.00	234.09
638.00	227.70
639.00	232.43
640.00	234.40
641.00	245.28
642.00	266.63
643.00	242.44
644.00	230.11
645.00	230.28
646.00	239.11
647.00	232.68
648.00	236.72
649.00	231.76
650.00	222.22
651.00	223.23
652.00	221.69
653.00	225.31
654.00	234.30
655.00	232.38
656.00	346.23
657.00	324.22
658.00	256.99
659.00	232.45
660.00	226.41
661.00	226.97
662.00	217.04
663.00	215.42
664.00	250.97
665.00	244.16
666.00	230.49
667.00	230.38
668.00	234.52
669.00	233.26
670.00	223.63
671.00	222.46
672.00	218.91
673.00	226.02
674.00	220.82
675.00	257.34
676.00	267.86
677.00	229.77
678.00	221.93
679.00	221.67
680.00	213.40
681.00	218.04
682.00	217.61
683.00	219.68
684.00	220.72
685.00	219.70
686.00	217.06
687.00	238.05
688.00	238.71
689.00	232.67
690.00	221.10
691.00	217.99
692.00	221.54
693.00	220.37
694.00	241.15
695.00	229.22
696.00	260.01
697.00	394.55
698.00	271.01
699.00	230.63
700.00	224.52
701.00	221.68
702.00	220.98
703.00	250.99
704.00	246.27
705.00	223.00
706.00	223.44
707.00	332.00
708.00	255.89
709.00	232.41
710.00	216.65
711.00	216.47
712.00	218.21
713.00	212.12
714.00	213.80
715.00	230.34
716.00	222.02
717.00	212.32
718.00	211.49
719.00	207.98
720.00	211.69
721.00	221.06
722.00	217.13
723.00	220.51
724.00	218.66
725.00	237.41
726.00	218.55
727.00	235.93
728.00	250.66
729.00	225.49
730.00	215.03
731.00	214.80
732.00	217.72
733.00	210.95
734.00	211.65
735.00	214.33
736.00	235.88
737.00	240.28
738.00	289.88
739.00	370.37
740.00	259.59
741.00	224.89
742.00	213.95
743.00	216.09
744.00	220.96
745.00	223.29
746.00	207.14
747.00	212.59
748.00	210.98
749.00	217.36
750.00	273.82
751.00	650.08
752.00	527.41
753.00	323.95
754.00	234.25
755.00	212.08
756.00	207.56
757.00	209.03
758.00	211.00
759.00	216.80
760.00	210.89
761.00	212.07
762.00	215.17
763.00	249.80
764.00	1008.19
765.00	537.19
766.00	325.57
767.00	229.03
768.00	210.64
769.00	210.11
770.00	206.72
771.00	211.39
772.00	219.19
773.00	375.00
774.00	272.29
775.00	235.00
776.00	210.53
777.00	222.98
778.00	304.01
779.00	249.73
780.00	221.29
781.00	211.33
782.00	210.10
783.00	207.53
784.00	206.83
785.00	213.84
786.00	215.37
787.00	213.61
788.00	211.52
789.00	220.99
790.00	220.96
791.00	213.94
792.00	212.15
793.00	211.55
794.00	213.15
795.00	331.55
796.00	341.53
797.00	248.80
798.00	221.63
799.00	215.08
800.00	209.87
801.00	314.97
802.00	461.92
803.00	329.87
804.00	245.91
805.00	221.55
806.00	210.54
807.00	211.86
808.00	211.49
809.00	216.11
810.00	228.22
811.00	447.69
812.00	1959.94
813.00	1168.79
814.00	520.57
815.00	315.49
816.00	216.13
817.00	214.04
818.00	205.07
819.00	206.02
820.00	203.85
821.00	204.92
822.00	210.29
823.00	205.71
824.00	207.40
825.00	218.33
826.00	212.80
827.00	284.77
828.00	241.67
829.00	224.38
830.00	213.48
831.00	203.92
832.00	203.41
833.00	207.57
834.00	209.10
835.00	206.19
836.00	206.38
837.00	209.23
838.00	205.57
839.00	205.04
840.00	212.20
841.00	270.99
842.00	303.82
843.00	459.96
844.00	336.44
845.00	258.61
846.00	233.33
847.00	211.50
848.00	205.81
849.00	202.77
850.00	201.98
851.00	203.87
852.00	213.52
853.00	266.99
854.00	223.13
855.00	217.75
856.00	212.46
857.00	203.39
858.00	208.81
859.00	203.27
860.00	203.73
861.00	207.27
862.00	208.11
863.00	205.90
864.00	207.89
865.00	206.07
866.00	205.86
867.00	213.87
868.00	217.01
869.00	210.35
870.00	209.39
871.00	205.26
872.00	205.98
873.00	205.06
874.00	200.91
875.00	208.07
876.00	208.71
877.00	205.30
878.00	205.88
879.00	201.30
880.00	206.06
881.00	205.11
882.00	202.00
883.00	200.21
884.00	205.99
885.00	202.64
886.00	201.28
887.00	205.90
888.00	202.82
889.00	203.57
890.00	207.70
891.00	205.32
892.00	202.44
893.00	203.02
894.00	203.30
895.00	211.84
896.00	201.70
897.00	201.13
898.00	202.96
899.00	203.74
900.00	206.95
901.00	206.88
902.00	204.94
903.00	207.52
904.00	205.79
905.00	203.02
906.00	207.85
907.00	204.82
908.00	207.42
909.00	208.05
910.00	204.07
911.00	210.64
912.00	218.13
913.00	326.50
914.00	274.80
915.00	242.52
916.00	229.60
917.00	215.46
918.00	203.75
919.00	207.61
920.00	213.90
921.00	206.23
922.00	207.02
923.00	220.06
924.00	217.58
925.00	212.55
926.00	207.00
927.00	206.72
928.00	204.51
929.00	207.08
930.00	203.98
931.00	200.92
932.00	202.72
933.00	202.51
934.00	204.98
935.00	200.43
936.00	206.98
937.00	201.78
938.00	204.48
939.00	203.96
940.00	202.03
941.00	204.24
942.00	208.01
943.00	201.14
944.00	200.55
945.00	203.09
946.00	206.12
947.00	202.99
948.00	200.30
949.00	203.97
950.00	201.62
951.00	199.51
952.00	201.11
953.00	203.45
954.00	200.28
955.00	205.29
956.00	203.78
957.00	204.04
958.00	200.89
959.00	202.91
960.00	206.10
961.00	203.26
962.00	204.37
963.00	204.59
964.00	205.32
965.00	200.45
966.00	208.30
967.00	205.23
968.00	209.05
969.00	204.77
970.00	205.08
971.00	206.24
972.00	201.36
973.00	207.97
974.00	202.76
975.00	204.88
976.00	207.42
977.00	202.06
978.00	202.99
979.00	205.12
980.00	201.35
981.00	203.72
982.00	205.24
983.00	207.59
984.00	200.11
985.00	207.02
986.00	203.25
987.00	205.82
988.00	204.50
989.00	205.33
990.00	200.24
991.00	202.12
992.00	198.67
993.00	202.13
994.00	204.20
995.00	202.86
996.00	205.33
997.00	203.45
998.00	201.82
999.00	208.59
1000.00	206.15
>>>>>End Processed Spectral Data<<<<<
