SpectraSuite Data File
++++++++++++++++++++++++++++++++++++
Date: Tue Oct 18 14:51:57 CDT 2011
User: Helimak
Dark Spectrum Present: No
Reference Spectrum Present: No
Number of Sampled Component Spectra: 1
Spectrometers: USB2G37154
Integration Time (usec): 200000 (USB2G37154)
Spectra Averaged: 1 (USB2G37154)
Boxcar Smoothing: 0 (USB2G37154)
Correct for Electrical Dark: No (USB2G37154)
Strobe/Lamp Enabled: No (USB2G37154)
Correct for Detector Non-linearity: No (USB2G37154)
Correct for Stray Light: No (USB2G37154)
Number of Pixels in Processed Spectrum: 651
>>>>>Begin Processed Spectral Data<<<<<
350.00	205.63
351.00	204.79
352.00	202.18
353.00	204.98
354.00	203.30
355.00	199.83
356.00	204.72
357.00	205.21
358.00	208.32
359.00	205.51
360.00	202.99
361.00	204.20
362.00	208.12
363.00	207.80
364.00	208.78
365.00	202.44
366.00	205.03
367.00	203.88
368.00	206.14
369.00	210.85
370.00	212.04
371.00	207.62
372.00	211.75
373.00	208.91
374.00	209.73
375.00	215.31
376.00	208.75
377.00	210.11
378.00	216.90
379.00	215.24
380.00	219.51
381.00	222.21
382.00	223.99
383.00	220.72
384.00	221.17
385.00	223.19
386.00	226.96
387.00	231.25
388.00	221.04
389.00	220.68
390.00	220.98
391.00	222.00
392.00	221.71
393.00	230.46
394.00	236.34
395.00	224.25
396.00	223.92
397.00	223.68
398.00	220.76
399.00	227.53
400.00	236.94
401.00	251.21
402.00	252.26
403.00	263.10
404.00	261.15
405.00	245.25
406.00	252.01
407.00	255.41
408.00	241.59
409.00	239.06
410.00	242.09
411.00	232.93
412.00	232.73
413.00	231.16
414.00	232.83
415.00	276.23
416.00	260.84
417.00	249.72
418.00	269.00
419.00	350.06
420.00	299.30
421.00	253.22
422.00	271.26
423.00	256.26
424.00	251.12
425.00	314.74
426.00	367.82
427.00	361.50
428.00	291.06
429.00	293.02
430.00	272.13
431.00	258.67
432.00	285.17
433.00	336.77
434.00	593.45
435.00	414.18
436.00	313.25
437.00	297.10
438.00	269.70
439.00	305.58
440.00	290.96
441.00	289.32
442.00	424.89
443.00	316.87
444.00	258.34
445.00	243.47
446.00	240.59
447.00	254.79
448.00	251.85
449.00	243.01
450.00	268.68
451.00	269.68
452.00	260.34
453.00	272.17
454.00	307.51
455.00	285.54
456.00	285.91
457.00	304.72
458.00	363.09
459.00	322.22
460.00	423.45
461.00	342.66
462.00	275.12
463.00	259.77
464.00	249.67
465.00	294.59
466.00	272.64
467.00	252.99
468.00	255.78
469.00	255.10
470.00	255.90
471.00	257.28
472.00	313.55
473.00	322.39
474.00	271.82
475.00	262.55
476.00	317.90
477.00	268.18
478.00	252.22
479.00	262.59
480.00	468.56
481.00	324.19
482.00	269.26
483.00	256.42
484.00	300.62
485.00	328.23
486.00	334.64
487.00	574.20
488.00	498.50
489.00	342.78
490.00	290.35
491.00	274.29
492.00	282.33
493.00	285.02
494.00	267.29
495.00	268.23
496.00	314.59
497.00	284.53
498.00	268.28
499.00	265.36
500.00	309.47
501.00	330.82
502.00	279.03
503.00	265.01
504.00	289.03
505.00	311.48
506.00	315.32
507.00	310.81
508.00	302.90
509.00	288.22
510.00	267.18
511.00	261.99
512.00	267.10
513.00	278.28
514.00	314.83
515.00	282.36
516.00	273.55
517.00	264.20
518.00	287.21
519.00	273.89
520.00	257.24
521.00	261.30
522.00	269.76
523.00	253.04
524.00	261.54
525.00	265.17
526.00	257.50
527.00	257.71
528.00	254.88
529.00	251.70
530.00	255.92
531.00	255.74
532.00	262.74
533.00	274.35
534.00	273.73
535.00	280.86
536.00	280.78
537.00	274.21
538.00	264.61
539.00	262.44
540.00	259.00
541.00	263.15
542.00	263.74
543.00	268.30
544.00	268.08
545.00	275.35
546.00	279.44
547.00	289.58
548.00	271.56
549.00	313.45
550.00	299.82
551.00	288.00
552.00	274.73
553.00	267.52
554.00	261.17
555.00	281.16
556.00	292.14
557.00	278.01
558.00	260.62
559.00	256.87
560.00	272.78
561.00	262.86
562.00	250.35
563.00	244.32
564.00	253.56
565.00	268.40
566.00	259.78
567.00	266.24
568.00	266.09
569.00	268.48
570.00	261.53
571.00	258.45
572.00	251.27
573.00	250.91
574.00	257.76
575.00	252.58
576.00	247.88
577.00	254.97
578.00	249.04
579.00	253.17
580.00	249.19
581.00	239.26
582.00	241.80
583.00	247.57
584.00	247.00
585.00	238.18
586.00	248.22
587.00	249.11
588.00	269.61
589.00	278.07
590.00	253.45
591.00	257.79
592.00	250.21
593.00	255.61
594.00	242.03
595.00	236.05
596.00	235.05
597.00	240.87
598.00	244.20
599.00	253.27
600.00	252.90
601.00	256.22
602.00	261.67
603.00	357.42
604.00	327.03
605.00	285.50
606.00	264.90
607.00	241.18
608.00	236.13
609.00	232.84
610.00	248.76
611.00	270.55
612.00	265.92
613.00	243.47
614.00	241.71
615.00	248.01
616.00	247.87
617.00	272.93
618.00	247.52
619.00	247.28
620.00	236.95
621.00	252.96
622.00	241.68
623.00	234.87
624.00	243.26
625.00	250.70
626.00	242.10
627.00	245.64
628.00	246.55
629.00	248.15
630.00	250.06
631.00	252.17
632.00	236.27
633.00	234.28
634.00	230.54
635.00	231.03
636.00	237.15
637.00	232.01
638.00	233.20
639.00	229.49
640.00	241.21
641.00	252.00
642.00	262.10
643.00	243.82
644.00	236.54
645.00	237.77
646.00	237.95
647.00	238.79
648.00	235.03
649.00	233.79
650.00	224.32
651.00	231.86
652.00	222.47
653.00	225.00
654.00	237.27
655.00	234.32
656.00	353.07
657.00	323.78
658.00	258.99
659.00	226.19
660.00	230.01
661.00	222.37
662.00	218.95
663.00	216.06
664.00	250.30
665.00	247.54
666.00	226.81
667.00	223.44
668.00	233.49
669.00	232.54
670.00	224.56
671.00	222.22
672.00	225.83
673.00	220.96
674.00	224.14
675.00	257.26
676.00	257.36
677.00	228.29
678.00	221.43
679.00	221.81
680.00	215.47
681.00	218.27
682.00	221.71
683.00	211.68
684.00	220.50
685.00	222.90
686.00	218.89
687.00	239.30
688.00	236.82
689.00	230.45
690.00	220.57
691.00	219.61
692.00	217.01
693.00	220.74
694.00	242.29
695.00	233.85
696.00	260.01
697.00	393.31
698.00	269.86
699.00	237.22
700.00	224.88
701.00	219.42
702.00	220.47
703.00	255.14
704.00	247.85
705.00	224.14
706.00	221.73
707.00	330.40
708.00	262.17
709.00	230.54
710.00	214.67
711.00	219.11
712.00	218.67
713.00	216.41
714.00	214.39
715.00	229.27
716.00	223.55
717.00	215.98
718.00	212.62
719.00	211.67
720.00	213.53
721.00	220.88
722.00	218.37
723.00	221.44
724.00	218.54
725.00	227.44
726.00	219.45
727.00	227.83
728.00	252.58
729.00	223.73
730.00	216.63
731.00	213.30
732.00	219.25
733.00	206.74
734.00	210.17
735.00	221.73
736.00	230.07
737.00	240.22
738.00	298.00
739.00	368.34
740.00	264.62
741.00	225.08
742.00	217.02
743.00	216.03
744.00	219.02
745.00	223.22
746.00	206.02
747.00	211.57
748.00	209.09
749.00	215.56
750.00	276.47
751.00	659.80
752.00	523.48
753.00	327.36
754.00	237.20
755.00	213.79
756.00	213.01
757.00	207.22
758.00	212.65
759.00	213.96
760.00	210.62
761.00	211.74
762.00	220.11
763.00	249.50
764.00	1010.11
765.00	540.65
766.00	328.93
767.00	230.59
768.00	215.59
769.00	208.50
770.00	208.98
771.00	209.07
772.00	220.52
773.00	380.11
774.00	270.92
775.00	236.92
776.00	212.44
777.00	220.48
778.00	312.03
779.00	241.86
780.00	217.27
781.00	210.22
782.00	205.86
783.00	210.66
784.00	205.04
785.00	207.78
786.00	210.40
787.00	216.57
788.00	208.94
789.00	221.97
790.00	223.62
791.00	218.06
792.00	210.53
793.00	211.68
794.00	216.38
795.00	327.53
796.00	346.08
797.00	249.35
798.00	226.32
799.00	208.58
800.00	209.65
801.00	317.16
802.00	468.88
803.00	331.67
804.00	247.43
805.00	220.85
806.00	208.60
807.00	207.93
808.00	213.44
809.00	218.43
810.00	221.79
811.00	448.67
812.00	1983.54
813.00	1195.43
814.00	523.89
815.00	323.70
816.00	216.39
817.00	213.24
818.00	208.82
819.00	211.03
820.00	207.88
821.00	200.98
822.00	209.93
823.00	208.05
824.00	208.02
825.00	213.66
826.00	207.83
827.00	286.87
828.00	249.28
829.00	222.74
830.00	214.48
831.00	204.70
832.00	206.53
833.00	203.86
834.00	203.28
835.00	207.17
836.00	205.56
837.00	206.81
838.00	205.25
839.00	209.05
840.00	208.04
841.00	265.06
842.00	299.59
843.00	462.39
844.00	346.36
845.00	260.93
846.00	234.36
847.00	214.18
848.00	206.08
849.00	196.10
850.00	204.24
851.00	206.45
852.00	217.41
853.00	268.08
854.00	226.58
855.00	217.17
856.00	218.65
857.00	200.30
858.00	208.16
859.00	205.15
860.00	207.36
861.00	214.18
862.00	206.31
863.00	204.18
864.00	209.77
865.00	207.38
866.00	208.46
867.00	211.90
868.00	212.01
869.00	211.68
870.00	210.21
871.00	209.83
872.00	204.96
873.00	211.36
874.00	202.79
875.00	205.55
876.00	208.31
877.00	205.10
878.00	202.53
879.00	205.36
880.00	205.79
881.00	213.47
882.00	204.65
883.00	205.03
884.00	204.00
885.00	206.06
886.00	203.73
887.00	204.51
888.00	206.07
889.00	199.77
890.00	204.50
891.00	208.44
892.00	205.22
893.00	201.38
894.00	202.22
895.00	213.69
896.00	204.47
897.00	201.50
898.00	200.80
899.00	203.95
900.00	202.94
901.00	204.43
902.00	200.60
903.00	210.15
904.00	204.84
905.00	205.97
906.00	207.76
907.00	206.81
908.00	206.48
909.00	205.86
910.00	203.68
911.00	206.89
912.00	217.75
913.00	320.93
914.00	274.24
915.00	237.57
916.00	224.74
917.00	212.82
918.00	205.26
919.00	206.00
920.00	204.92
921.00	208.86
922.00	205.38
923.00	222.70
924.00	217.64
925.00	214.15
926.00	210.03
927.00	207.32
928.00	202.52
929.00	205.14
930.00	204.65
931.00	201.26
932.00	203.74
933.00	203.29
934.00	202.03
935.00	203.09
936.00	205.35
937.00	205.01
938.00	203.56
939.00	204.49
940.00	207.37
941.00	204.88
942.00	205.96
943.00	204.89
944.00	203.02
945.00	214.85
946.00	198.18
947.00	203.99
948.00	203.05
949.00	202.01
950.00	204.09
951.00	202.37
952.00	200.99
953.00	203.38
954.00	201.29
955.00	205.12
956.00	206.07
957.00	205.91
958.00	201.67
959.00	203.92
960.00	210.06
961.00	198.18
962.00	202.98
963.00	201.02
964.00	208.03
965.00	205.84
966.00	203.03
967.00	214.93
968.00	206.98
969.00	204.59
970.00	208.20
971.00	206.26
972.00	200.57
973.00	210.42
974.00	210.48
975.00	201.05
976.00	206.83
977.00	199.85
978.00	206.38
979.00	206.98
980.00	208.24
981.00	203.78
982.00	205.40
983.00	208.08
984.00	204.07
985.00	209.39
986.00	202.53
987.00	203.87
988.00	204.93
989.00	200.78
990.00	203.61
991.00	205.48
992.00	199.87
993.00	202.27
994.00	207.72
995.00	200.53
996.00	205.04
997.00	202.83
998.00	204.59
999.00	199.80
1000.00	202.11
>>>>>End Processed Spectral Data<<<<<
