SpectraSuite Data File
++++++++++++++++++++++++++++++++++++
Date: Tue Oct 18 14:54:16 CDT 2011
User: Helimak
Dark Spectrum Present: No
Reference Spectrum Present: No
Number of Sampled Component Spectra: 1
Spectrometers: USB2G37154
Integration Time (usec): 200000 (USB2G37154)
Spectra Averaged: 1 (USB2G37154)
Boxcar Smoothing: 0 (USB2G37154)
Correct for Electrical Dark: No (USB2G37154)
Strobe/Lamp Enabled: No (USB2G37154)
Correct for Detector Non-linearity: No (USB2G37154)
Correct for Stray Light: No (USB2G37154)
Number of Pixels in Processed Spectrum: 651
>>>>>Begin Processed Spectral Data<<<<<
350.00	200.78
351.00	202.51
352.00	201.74
353.00	203.00
354.00	199.86
355.00	204.36
356.00	199.68
357.00	203.39
358.00	206.69
359.00	207.25
360.00	209.21
361.00	205.93
362.00	207.83
363.00	204.50
364.00	204.70
365.00	202.18
366.00	195.57
367.00	206.04
368.00	202.38
369.00	204.90
370.00	204.07
371.00	203.40
372.00	206.60
373.00	205.92
374.00	205.09
375.00	217.09
376.00	211.93
377.00	209.63
378.00	212.36
379.00	208.95
380.00	211.10
381.00	209.29
382.00	217.74
383.00	214.93
384.00	214.93
385.00	218.17
386.00	221.92
387.00	218.70
388.00	209.80
389.00	214.92
390.00	214.29
391.00	219.35
392.00	214.94
393.00	219.70
394.00	221.85
395.00	217.62
396.00	211.00
397.00	212.64
398.00	213.08
399.00	219.99
400.00	228.23
401.00	233.85
402.00	232.73
403.00	241.20
404.00	243.80
405.00	237.93
406.00	236.02
407.00	241.89
408.00	227.07
409.00	231.87
410.00	227.87
411.00	218.65
412.00	223.64
413.00	222.00
414.00	224.04
415.00	249.54
416.00	241.52
417.00	234.43
418.00	246.31
419.00	292.73
420.00	266.64
421.00	233.26
422.00	242.24
423.00	237.34
424.00	235.25
425.00	281.54
426.00	303.44
427.00	303.49
428.00	258.95
429.00	258.28
430.00	256.47
431.00	234.81
432.00	263.74
433.00	290.81
434.00	412.32
435.00	327.29
436.00	271.03
437.00	265.33
438.00	248.43
439.00	262.57
440.00	260.37
441.00	252.07
442.00	327.75
443.00	272.03
444.00	237.94
445.00	233.91
446.00	223.86
447.00	239.50
448.00	235.23
449.00	235.05
450.00	242.87
451.00	244.22
452.00	247.44
453.00	247.84
454.00	280.75
455.00	264.49
456.00	258.48
457.00	274.75
458.00	304.13
459.00	280.11
460.00	329.16
461.00	293.74
462.00	253.48
463.00	243.88
464.00	240.15
465.00	263.57
466.00	248.87
467.00	238.87
468.00	245.22
469.00	239.14
470.00	246.41
471.00	241.91
472.00	264.57
473.00	281.56
474.00	253.03
475.00	253.28
476.00	276.79
477.00	247.55
478.00	238.20
479.00	243.96
480.00	346.48
481.00	279.03
482.00	254.86
483.00	244.60
484.00	270.06
485.00	293.39
486.00	291.23
487.00	419.06
488.00	380.84
489.00	298.30
490.00	265.72
491.00	256.44
492.00	258.01
493.00	258.85
494.00	250.32
495.00	249.03
496.00	279.34
497.00	263.83
498.00	258.84
499.00	251.20
500.00	271.19
501.00	283.42
502.00	257.02
503.00	253.54
504.00	270.40
505.00	278.02
506.00	277.27
507.00	283.21
508.00	273.06
509.00	266.42
510.00	259.51
511.00	248.06
512.00	251.02
513.00	247.62
514.00	280.71
515.00	258.25
516.00	258.59
517.00	246.41
518.00	262.81
519.00	257.69
520.00	246.82
521.00	246.44
522.00	248.84
523.00	240.32
524.00	239.33
525.00	251.73
526.00	248.15
527.00	238.52
528.00	240.37
529.00	243.09
530.00	245.02
531.00	238.58
532.00	248.15
533.00	253.65
534.00	257.71
535.00	266.07
536.00	255.90
537.00	258.88
538.00	253.67
539.00	247.61
540.00	252.89
541.00	252.48
542.00	252.40
543.00	248.97
544.00	252.64
545.00	257.29
546.00	257.60
547.00	271.99
548.00	254.16
549.00	277.79
550.00	274.80
551.00	266.98
552.00	253.44
553.00	253.89
554.00	252.47
555.00	259.91
556.00	265.93
557.00	250.55
558.00	242.87
559.00	240.86
560.00	261.05
561.00	248.48
562.00	238.03
563.00	237.49
564.00	241.89
565.00	250.30
566.00	247.74
567.00	252.06
568.00	249.99
569.00	244.17
570.00	253.61
571.00	253.92
572.00	243.97
573.00	236.37
574.00	247.55
575.00	235.64
576.00	234.41
577.00	241.32
578.00	238.10
579.00	238.67
580.00	239.88
581.00	237.89
582.00	231.13
583.00	228.13
584.00	235.15
585.00	231.27
586.00	234.18
587.00	232.14
588.00	244.88
589.00	255.48
590.00	245.08
591.00	245.27
592.00	237.30
593.00	237.75
594.00	237.01
595.00	230.11
596.00	226.79
597.00	231.93
598.00	234.72
599.00	239.96
600.00	239.37
601.00	244.10
602.00	243.13
603.00	304.48
604.00	283.24
605.00	262.43
606.00	242.36
607.00	230.97
608.00	223.62
609.00	223.98
610.00	229.93
611.00	247.02
612.00	242.18
613.00	231.13
614.00	228.38
615.00	234.04
616.00	230.32
617.00	242.95
618.00	236.04
619.00	237.18
620.00	231.29
621.00	237.15
622.00	233.14
623.00	225.90
624.00	234.77
625.00	237.25
626.00	236.86
627.00	235.06
628.00	234.74
629.00	237.64
630.00	231.62
631.00	237.95
632.00	226.24
633.00	225.07
634.00	224.80
635.00	223.02
636.00	225.88
637.00	224.36
638.00	226.21
639.00	227.13
640.00	229.26
641.00	237.53
642.00	242.09
643.00	232.39
644.00	227.41
645.00	222.99
646.00	227.98
647.00	222.36
648.00	228.61
649.00	225.83
650.00	219.33
651.00	218.77
652.00	219.78
653.00	220.64
654.00	229.13
655.00	219.99
656.00	298.56
657.00	284.12
658.00	237.99
659.00	219.25
660.00	222.27
661.00	218.17
662.00	216.29
663.00	212.93
664.00	239.25
665.00	225.53
666.00	221.17
667.00	226.61
668.00	228.13
669.00	220.31
670.00	220.16
671.00	219.00
672.00	216.28
673.00	217.98
674.00	216.22
675.00	235.14
676.00	241.36
677.00	222.74
678.00	217.62
679.00	215.57
680.00	215.33
681.00	218.10
682.00	216.96
683.00	214.51
684.00	217.62
685.00	218.32
686.00	215.80
687.00	227.19
688.00	227.34
689.00	228.01
690.00	217.93
691.00	218.31
692.00	213.29
693.00	210.97
694.00	223.15
695.00	225.00
696.00	242.01
697.00	324.40
698.00	249.56
699.00	225.41
700.00	221.21
701.00	215.08
702.00	218.50
703.00	236.33
704.00	231.43
705.00	214.72
706.00	215.41
707.00	287.15
708.00	241.69
709.00	219.97
710.00	208.21
711.00	212.29
712.00	212.78
713.00	217.89
714.00	207.41
715.00	219.73
716.00	215.77
717.00	211.74
718.00	212.52
719.00	210.72
720.00	210.87
721.00	213.71
722.00	210.03
723.00	212.08
724.00	213.97
725.00	232.27
726.00	211.42
727.00	219.91
728.00	231.16
729.00	215.23
730.00	215.18
731.00	212.55
732.00	210.00
733.00	209.27
734.00	210.36
735.00	217.41
736.00	221.04
737.00	226.96
738.00	262.12
739.00	308.35
740.00	241.17
741.00	217.97
742.00	212.98
743.00	214.94
744.00	207.83
745.00	220.43
746.00	206.18
747.00	210.54
748.00	210.97
749.00	213.85
750.00	248.52
751.00	480.31
752.00	422.70
753.00	279.73
754.00	225.08
755.00	207.38
756.00	210.67
757.00	209.14
758.00	215.53
759.00	213.56
760.00	207.88
761.00	209.91
762.00	212.29
763.00	237.46
764.00	701.36
765.00	423.82
766.00	280.72
767.00	219.31
768.00	214.94
769.00	206.21
770.00	208.27
771.00	204.80
772.00	219.30
773.00	315.82
774.00	246.29
775.00	225.01
776.00	208.09
777.00	217.50
778.00	263.04
779.00	231.15
780.00	212.55
781.00	203.24
782.00	206.80
783.00	206.24
784.00	204.05
785.00	212.23
786.00	210.41
787.00	212.95
788.00	208.41
789.00	214.03
790.00	212.72
791.00	212.74
792.00	210.38
793.00	207.44
794.00	212.15
795.00	282.32
796.00	290.85
797.00	232.06
798.00	220.26
799.00	211.00
800.00	208.34
801.00	275.32
802.00	372.92
803.00	283.32
804.00	232.59
805.00	215.80
806.00	209.15
807.00	208.97
808.00	208.00
809.00	208.53
810.00	217.39
811.00	358.19
812.00	1319.75
813.00	820.60
814.00	410.23
815.00	285.11
816.00	212.00
817.00	213.43
818.00	206.08
819.00	207.32
820.00	205.83
821.00	208.09
822.00	205.85
823.00	207.85
824.00	204.11
825.00	213.17
826.00	205.42
827.00	259.25
828.00	231.32
829.00	214.85
830.00	212.00
831.00	205.19
832.00	208.86
833.00	206.31
834.00	206.25
835.00	207.11
836.00	204.76
837.00	204.30
838.00	205.53
839.00	201.99
840.00	206.51
841.00	244.82
842.00	265.78
843.00	372.97
844.00	288.40
845.00	237.81
846.00	221.03
847.00	207.86
848.00	203.28
849.00	202.76
850.00	204.00
851.00	202.50
852.00	208.42
853.00	243.84
854.00	215.50
855.00	210.43
856.00	216.45
857.00	210.03
858.00	208.40
859.00	206.12
860.00	205.93
861.00	208.37
862.00	206.40
863.00	207.68
864.00	210.10
865.00	208.92
866.00	202.79
867.00	208.62
868.00	208.98
869.00	209.85
870.00	205.89
871.00	205.54
872.00	213.40
873.00	206.37
874.00	205.99
875.00	205.41
876.00	202.23
877.00	201.33
878.00	208.46
879.00	203.01
880.00	202.92
881.00	205.48
882.00	201.31
883.00	203.99
884.00	202.00
885.00	204.87
886.00	200.42
887.00	206.22
888.00	203.16
889.00	203.77
890.00	205.65
891.00	208.11
892.00	207.55
893.00	202.21
894.00	208.25
895.00	209.79
896.00	207.68
897.00	206.37
898.00	201.20
899.00	203.49
900.00	207.93
901.00	201.66
902.00	201.59
903.00	205.25
904.00	201.70
905.00	203.06
906.00	204.95
907.00	210.11
908.00	205.50
909.00	199.13
910.00	205.35
911.00	203.53
912.00	215.74
913.00	283.98
914.00	246.33
915.00	227.84
916.00	221.51
917.00	210.26
918.00	204.56
919.00	205.70
920.00	201.04
921.00	208.08
922.00	200.91
923.00	217.77
924.00	208.17
925.00	210.08
926.00	203.99
927.00	205.42
928.00	204.73
929.00	206.01
930.00	203.28
931.00	202.85
932.00	205.17
933.00	202.09
934.00	204.00
935.00	204.05
936.00	205.49
937.00	204.93
938.00	205.63
939.00	206.48
940.00	200.63
941.00	199.22
942.00	208.94
943.00	206.34
944.00	205.17
945.00	210.43
946.00	199.81
947.00	205.88
948.00	202.84
949.00	207.20
950.00	204.94
951.00	204.11
952.00	201.96
953.00	207.63
954.00	202.50
955.00	207.08
956.00	206.16
957.00	208.39
958.00	204.40
959.00	199.96
960.00	203.85
961.00	204.37
962.00	206.37
963.00	205.80
964.00	203.24
965.00	202.74
966.00	203.20
967.00	205.93
968.00	208.01
969.00	202.79
970.00	205.49
971.00	204.39
972.00	207.32
973.00	207.26
974.00	205.33
975.00	206.03
976.00	204.05
977.00	200.69
978.00	204.89
979.00	202.84
980.00	201.89
981.00	200.48
982.00	202.31
983.00	210.19
984.00	205.23
985.00	206.38
986.00	205.79
987.00	206.70
988.00	204.03
989.00	204.28
990.00	205.06
991.00	202.23
992.00	206.70
993.00	203.89
994.00	207.33
995.00	202.46
996.00	203.84
997.00	203.60
998.00	204.23
999.00	203.19
1000.00	201.85
>>>>>End Processed Spectral Data<<<<<
