SpectraSuite Data File
++++++++++++++++++++++++++++++++++++
Date: Tue Oct 18 14:28:38 CDT 2011
User: Helimak
Dark Spectrum Present: No
Reference Spectrum Present: No
Number of Sampled Component Spectra: 1
Spectrometers: USB2G37154
Integration Time (usec): 200000 (USB2G37154)
Spectra Averaged: 1 (USB2G37154)
Boxcar Smoothing: 0 (USB2G37154)
Correct for Electrical Dark: No (USB2G37154)
Strobe/Lamp Enabled: No (USB2G37154)
Correct for Detector Non-linearity: No (USB2G37154)
Correct for Stray Light: No (USB2G37154)
Number of Pixels in Processed Spectrum: 651
>>>>>Begin Processed Spectral Data<<<<<
350.00	201.37
351.00	208.58
352.00	203.13
353.00	203.18
354.00	204.27
355.00	204.15
356.00	207.13
357.00	212.21
358.00	212.36
359.00	207.13
360.00	208.14
361.00	206.86
362.00	208.45
363.00	203.15
364.00	209.88
365.00	207.90
366.00	211.56
367.00	206.88
368.00	210.50
369.00	213.29
370.00	213.98
371.00	212.64
372.00	217.92
373.00	216.92
374.00	213.95
375.00	212.22
376.00	213.50
377.00	222.83
378.00	229.14
379.00	227.52
380.00	229.45
381.00	229.75
382.00	229.07
383.00	231.53
384.00	240.90
385.00	246.48
386.00	240.89
387.00	243.75
388.00	233.73
389.00	227.67
390.00	227.91
391.00	231.11
392.00	242.75
393.00	235.77
394.00	246.10
395.00	235.90
396.00	240.89
397.00	232.62
398.00	237.11
399.00	243.12
400.00	269.25
401.00	284.93
402.00	280.50
403.00	293.36
404.00	300.87
405.00	265.30
406.00	295.04
407.00	308.39
408.00	274.32
409.00	279.07
410.00	271.09
411.00	253.99
412.00	261.10
413.00	260.24
414.00	250.28
415.00	315.19
416.00	291.89
417.00	274.75
418.00	309.02
419.00	418.02
420.00	355.22
421.00	275.63
422.00	316.46
423.00	294.53
424.00	277.47
425.00	386.88
426.00	470.12
427.00	458.08
428.00	347.22
429.00	332.95
430.00	312.31
431.00	286.17
432.00	350.88
433.00	431.62
434.00	1028.97
435.00	625.14
436.00	412.83
437.00	373.71
438.00	319.79
439.00	407.56
440.00	356.44
441.00	358.43
442.00	658.66
443.00	431.32
444.00	300.38
445.00	259.04
446.00	254.19
447.00	295.91
448.00	286.23
449.00	270.07
450.00	292.85
451.00	286.58
452.00	283.54
453.00	310.46
454.00	399.92
455.00	328.76
456.00	316.82
457.00	378.38
458.00	494.50
459.00	412.62
460.00	627.35
461.00	478.54
462.00	330.91
463.00	293.61
464.00	272.57
465.00	362.80
466.00	311.35
467.00	280.55
468.00	278.14
469.00	281.95
470.00	284.21
471.00	281.32
472.00	387.13
473.00	432.31
474.00	318.09
475.00	306.70
476.00	415.68
477.00	308.41
478.00	271.80
479.00	296.21
480.00	769.29
481.00	425.98
482.00	308.19
483.00	279.07
484.00	379.37
485.00	403.56
486.00	418.28
487.00	963.36
488.00	781.37
489.00	447.11
490.00	338.56
491.00	313.07
492.00	316.34
493.00	337.30
494.00	297.53
495.00	295.11
496.00	403.19
497.00	333.73
498.00	295.56
499.00	290.62
500.00	374.04
501.00	427.60
502.00	328.04
503.00	299.46
504.00	329.91
505.00	370.19
506.00	382.23
507.00	365.24
508.00	342.32
509.00	320.99
510.00	294.77
511.00	293.97
512.00	293.73
513.00	309.42
514.00	403.04
515.00	330.06
516.00	308.51
517.00	292.78
518.00	322.84
519.00	299.00
520.00	273.16
521.00	288.19
522.00	291.06
523.00	275.52
524.00	280.25
525.00	297.92
526.00	285.37
527.00	281.14
528.00	281.31
529.00	271.41
530.00	267.95
531.00	267.75
532.00	289.74
533.00	296.22
534.00	296.65
535.00	316.89
536.00	301.40
537.00	308.52
538.00	298.58
539.00	288.42
540.00	291.22
541.00	289.19
542.00	299.58
543.00	289.67
544.00	306.33
545.00	314.46
546.00	305.19
547.00	324.30
548.00	298.68
549.00	350.59
550.00	344.49
551.00	310.94
552.00	301.40
553.00	296.18
554.00	287.93
555.00	318.76
556.00	329.55
557.00	308.89
558.00	279.78
559.00	279.13
560.00	299.18
561.00	281.99
562.00	265.90
563.00	262.28
564.00	274.76
565.00	299.32
566.00	292.87
567.00	295.30
568.00	293.09
569.00	291.23
570.00	286.54
571.00	281.69
572.00	259.90
573.00	270.09
574.00	286.62
575.00	260.85
576.00	262.18
577.00	279.27
578.00	262.89
579.00	266.81
580.00	265.00
581.00	256.00
582.00	248.05
583.00	259.96
584.00	258.68
585.00	251.87
586.00	260.26
587.00	265.02
588.00	293.03
589.00	306.47
590.00	268.57
591.00	276.73
592.00	259.76
593.00	272.81
594.00	258.04
595.00	252.00
596.00	241.44
597.00	252.83
598.00	260.64
599.00	265.22
600.00	272.07
601.00	277.01
602.00	283.99
603.00	425.24
604.00	385.13
605.00	318.23
606.00	296.61
607.00	260.64
608.00	247.09
609.00	248.97
610.00	273.19
611.00	320.97
612.00	300.40
613.00	268.90
614.00	258.92
615.00	264.07
616.00	264.93
617.00	326.89
618.00	270.51
619.00	263.60
620.00	253.94
621.00	274.77
622.00	257.46
623.00	243.15
624.00	270.59
625.00	275.44
626.00	264.04
627.00	255.67
628.00	258.21
629.00	258.10
630.00	274.89
631.00	274.25
632.00	248.50
633.00	237.18
634.00	238.80
635.00	239.11
636.00	241.05
637.00	244.20
638.00	249.43
639.00	244.81
640.00	259.36
641.00	269.90
642.00	296.28
643.00	260.64
644.00	251.96
645.00	247.06
646.00	256.01
647.00	247.38
648.00	249.35
649.00	242.12
650.00	241.27
651.00	233.29
652.00	235.63
653.00	233.09
654.00	248.15
655.00	240.86
656.00	420.02
657.00	377.95
658.00	290.97
659.00	238.93
660.00	236.06
661.00	234.73
662.00	223.41
663.00	223.90
664.00	277.17
665.00	273.38
666.00	239.05
667.00	234.17
668.00	255.19
669.00	255.29
670.00	233.20
671.00	231.86
672.00	226.97
673.00	226.00
674.00	226.98
675.00	282.86
676.00	291.19
677.00	242.71
678.00	228.77
679.00	224.96
680.00	220.41
681.00	221.65
682.00	224.95
683.00	222.62
684.00	225.26
685.00	222.54
686.00	220.47
687.00	262.15
688.00	256.16
689.00	244.24
690.00	233.72
691.00	230.32
692.00	228.21
693.00	230.12
694.00	257.80
695.00	248.02
696.00	291.02
697.00	485.13
698.00	302.58
699.00	249.83
700.00	236.66
701.00	234.42
702.00	225.00
703.00	274.03
704.00	261.22
705.00	233.95
706.00	225.50
707.00	404.85
708.00	291.04
709.00	246.04
710.00	221.21
711.00	224.75
712.00	227.48
713.00	221.45
714.00	217.74
715.00	246.74
716.00	234.14
717.00	222.88
718.00	216.93
719.00	214.58
720.00	218.02
721.00	225.26
722.00	220.37
723.00	225.05
724.00	225.26
725.00	239.68
726.00	218.48
727.00	240.87
728.00	266.53
729.00	235.35
730.00	221.49
731.00	219.76
732.00	220.13
733.00	220.74
734.00	214.87
735.00	220.13
736.00	244.12
737.00	260.70
738.00	344.00
739.00	472.45
740.00	291.50
741.00	240.21
742.00	221.96
743.00	220.00
744.00	225.05
745.00	226.45
746.00	214.66
747.00	216.09
748.00	212.75
749.00	221.45
750.00	319.06
751.00	910.61
752.00	703.75
753.00	392.11
754.00	257.94
755.00	218.87
756.00	217.83
757.00	215.26
758.00	219.11
759.00	217.69
760.00	219.23
761.00	211.32
762.00	216.30
763.00	277.54
764.00	1506.65
765.00	734.20
766.00	392.92
767.00	244.82
768.00	215.42
769.00	210.49
770.00	208.58
771.00	207.36
772.00	233.17
773.00	486.83
774.00	305.88
775.00	246.46
776.00	215.58
777.00	232.75
778.00	393.05
779.00	277.50
780.00	230.93
781.00	210.85
782.00	209.80
783.00	207.48
784.00	208.80
785.00	208.59
786.00	212.59
787.00	216.89
788.00	218.14
789.00	223.93
790.00	226.48
791.00	223.00
792.00	223.00
793.00	218.59
794.00	217.64
795.00	404.39
796.00	415.58
797.00	275.92
798.00	237.68
799.00	217.11
800.00	217.77
801.00	383.46
802.00	621.19
803.00	395.02
804.00	274.30
805.00	226.88
806.00	219.17
807.00	214.00
808.00	216.32
809.00	219.75
810.00	237.46
811.00	580.58
812.00	2930.57
813.00	1712.69
814.00	677.85
815.00	381.27
816.00	231.21
817.00	218.63
818.00	210.84
819.00	216.99
820.00	208.23
821.00	210.95
822.00	211.83
823.00	207.99
824.00	207.00
825.00	213.88
826.00	212.75
827.00	334.61
828.00	268.05
829.00	232.09
830.00	220.76
831.00	212.91
832.00	208.88
833.00	211.74
834.00	214.22
835.00	204.20
836.00	205.64
837.00	208.70
838.00	212.05
839.00	208.00
840.00	211.62
841.00	307.75
842.00	355.63
843.00	608.80
844.00	404.77
845.00	291.20
846.00	249.84
847.00	215.83
848.00	211.91
849.00	206.59
850.00	208.02
851.00	202.70
852.00	220.86
853.00	302.64
854.00	234.26
855.00	216.36
856.00	222.86
857.00	205.70
858.00	203.36
859.00	205.11
860.00	202.45
861.00	214.52
862.00	212.14
863.00	210.96
864.00	214.17
865.00	208.36
866.00	209.10
867.00	211.58
868.00	214.00
869.00	209.66
870.00	211.13
871.00	210.08
872.00	206.89
873.00	209.00
874.00	207.57
875.00	204.87
876.00	207.16
877.00	207.71
878.00	205.92
879.00	203.78
880.00	205.85
881.00	206.37
882.00	204.41
883.00	203.27
884.00	207.00
885.00	205.46
886.00	207.07
887.00	204.18
888.00	206.31
889.00	203.20
890.00	204.01
891.00	208.37
892.00	210.56
893.00	204.47
894.00	203.96
895.00	208.11
896.00	203.72
897.00	203.74
898.00	201.67
899.00	205.38
900.00	208.39
901.00	204.84
902.00	201.22
903.00	213.33
904.00	204.41
905.00	204.91
906.00	207.33
907.00	211.58
908.00	208.67
909.00	206.25
910.00	211.68
911.00	208.38
912.00	228.40
913.00	393.50
914.00	309.30
915.00	262.85
916.00	241.93
917.00	219.28
918.00	206.90
919.00	211.41
920.00	202.12
921.00	207.42
922.00	205.36
923.00	234.80
924.00	220.61
925.00	222.34
926.00	213.01
927.00	211.12
928.00	204.80
929.00	203.63
930.00	205.39
931.00	203.10
932.00	204.52
933.00	205.18
934.00	205.08
935.00	203.77
936.00	207.67
937.00	208.68
938.00	204.96
939.00	199.65
940.00	204.05
941.00	203.08
942.00	207.99
943.00	204.40
944.00	204.38
945.00	208.84
946.00	200.07
947.00	205.11
948.00	203.21
949.00	203.65
950.00	202.45
951.00	204.54
952.00	203.97
953.00	204.36
954.00	204.35
955.00	208.09
956.00	206.08
957.00	209.60
958.00	204.33
959.00	207.98
960.00	204.01
961.00	205.94
962.00	201.17
963.00	205.63
964.00	204.11
965.00	203.73
966.00	204.43
967.00	211.37
968.00	212.97
969.00	208.95
970.00	208.30
971.00	205.17
972.00	207.85
973.00	203.98
974.00	208.97
975.00	203.02
976.00	204.51
977.00	204.00
978.00	204.12
979.00	201.77
980.00	201.56
981.00	201.21
982.00	200.58
983.00	206.44
984.00	204.06
985.00	204.92
986.00	201.44
987.00	199.61
988.00	202.01
989.00	202.82
990.00	203.02
991.00	201.76
992.00	202.40
993.00	204.52
994.00	206.47
995.00	203.94
996.00	204.51
997.00	205.11
998.00	200.17
999.00	205.55
1000.00	203.10
>>>>>End Processed Spectral Data<<<<<
