SpectraSuite Data File
++++++++++++++++++++++++++++++++++++
Date: Tue Oct 18 14:40:15 CDT 2011
User: Helimak
Dark Spectrum Present: No
Reference Spectrum Present: No
Number of Sampled Component Spectra: 1
Spectrometers: USB2G37154
Integration Time (usec): 200000 (USB2G37154)
Spectra Averaged: 1 (USB2G37154)
Boxcar Smoothing: 0 (USB2G37154)
Correct for Electrical Dark: No (USB2G37154)
Strobe/Lamp Enabled: No (USB2G37154)
Correct for Detector Non-linearity: No (USB2G37154)
Correct for Stray Light: No (USB2G37154)
Number of Pixels in Processed Spectrum: 651
>>>>>Begin Processed Spectral Data<<<<<
350.00	202.08
351.00	196.63
352.00	201.87
353.00	200.27
354.00	204.68
355.00	205.56
356.00	202.75
357.00	201.01
358.00	202.28
359.00	202.99
360.00	199.93
361.00	205.35
362.00	208.05
363.00	208.25
364.00	208.68
365.00	207.51
366.00	207.89
367.00	206.86
368.00	204.82
369.00	206.87
370.00	206.01
371.00	203.21
372.00	207.35
373.00	205.76
374.00	208.71
375.00	212.14
376.00	209.06
377.00	211.32
378.00	216.06
379.00	211.56
380.00	212.03
381.00	213.18
382.00	214.73
383.00	223.27
384.00	221.35
385.00	218.80
386.00	217.01
387.00	220.19
388.00	217.88
389.00	214.02
390.00	215.26
391.00	218.34
392.00	220.26
393.00	223.65
394.00	222.27
395.00	216.02
396.00	218.96
397.00	215.20
398.00	214.71
399.00	218.75
400.00	232.27
401.00	239.19
402.00	236.35
403.00	247.00
404.00	248.77
405.00	234.88
406.00	239.00
407.00	247.66
408.00	228.60
409.00	233.83
410.00	236.76
411.00	225.30
412.00	224.50
413.00	220.94
414.00	225.14
415.00	261.55
416.00	243.85
417.00	236.30
418.00	249.74
419.00	312.79
420.00	276.22
421.00	235.35
422.00	248.27
423.00	236.49
424.00	233.13
425.00	285.24
426.00	316.20
427.00	312.42
428.00	266.63
429.00	264.07
430.00	254.44
431.00	242.09
432.00	271.16
433.00	303.77
434.00	469.57
435.00	346.44
436.00	279.51
437.00	273.63
438.00	243.56
439.00	272.64
440.00	260.51
441.00	256.89
442.00	351.57
443.00	280.63
444.00	242.14
445.00	224.78
446.00	227.12
447.00	241.95
448.00	238.05
449.00	233.07
450.00	242.98
451.00	246.30
452.00	244.22
453.00	250.98
454.00	282.98
455.00	264.45
456.00	257.42
457.00	278.57
458.00	313.94
459.00	293.61
460.00	366.29
461.00	301.86
462.00	258.79
463.00	240.45
464.00	243.78
465.00	269.69
466.00	254.77
467.00	240.82
468.00	240.29
469.00	241.05
470.00	238.58
471.00	248.34
472.00	275.17
473.00	283.51
474.00	248.97
475.00	247.31
476.00	284.44
477.00	246.22
478.00	240.60
479.00	246.82
480.00	396.42
481.00	290.20
482.00	257.03
483.00	241.69
484.00	275.14
485.00	300.28
486.00	299.20
487.00	466.30
488.00	411.49
489.00	302.43
490.00	268.79
491.00	260.82
492.00	263.54
493.00	268.88
494.00	252.05
495.00	247.75
496.00	284.36
497.00	259.64
498.00	253.37
499.00	250.04
500.00	283.22
501.00	297.71
502.00	261.01
503.00	249.44
504.00	266.54
505.00	283.26
506.00	281.14
507.00	282.77
508.00	278.47
509.00	267.20
510.00	256.95
511.00	255.05
512.00	245.92
513.00	263.17
514.00	287.53
515.00	261.37
516.00	258.85
517.00	248.80
518.00	267.05
519.00	251.57
520.00	240.55
521.00	248.17
522.00	249.04
523.00	251.02
524.00	243.90
525.00	254.77
526.00	246.16
527.00	240.12
528.00	243.60
529.00	246.01
530.00	237.32
531.00	249.78
532.00	246.02
533.00	254.19
534.00	248.35
535.00	263.74
536.00	253.81
537.00	254.02
538.00	253.72
539.00	251.99
540.00	246.72
541.00	250.97
542.00	253.82
543.00	253.47
544.00	260.11
545.00	262.18
546.00	258.87
547.00	268.88
548.00	254.78
549.00	282.18
550.00	271.08
551.00	260.92
552.00	253.72
553.00	255.71
554.00	250.73
555.00	264.37
556.00	270.60
557.00	260.31
558.00	240.56
559.00	249.97
560.00	255.37
561.00	244.39
562.00	237.02
563.00	238.38
564.00	244.09
565.00	252.28
566.00	247.80
567.00	252.20
568.00	251.20
569.00	244.82
570.00	248.87
571.00	252.67
572.00	235.38
573.00	238.61
574.00	242.75
575.00	236.07
576.00	234.64
577.00	239.16
578.00	235.88
579.00	238.71
580.00	235.12
581.00	235.05
582.00	234.55
583.00	237.83
584.00	232.00
585.00	230.90
586.00	237.07
587.00	237.97
588.00	248.01
589.00	263.98
590.00	239.43
591.00	241.72
592.00	242.62
593.00	243.88
594.00	237.04
595.00	228.97
596.00	236.00
597.00	236.92
598.00	239.14
599.00	235.37
600.00	241.63
601.00	242.17
602.00	249.98
603.00	316.24
604.00	299.79
605.00	265.68
606.00	250.63
607.00	234.57
608.00	229.14
609.00	231.05
610.00	237.58
611.00	254.56
612.00	243.73
613.00	235.75
614.00	231.86
615.00	234.94
616.00	233.17
617.00	251.97
618.00	235.50
619.00	242.53
620.00	229.31
621.00	240.27
622.00	234.82
623.00	220.22
624.00	232.74
625.00	239.98
626.00	232.88
627.00	236.25
628.00	228.96
629.00	237.87
630.00	239.20
631.00	240.03
632.00	226.89
633.00	225.02
634.00	221.19
635.00	220.98
636.00	221.84
637.00	225.78
638.00	227.50
639.00	222.20
640.00	226.74
641.00	234.96
642.00	250.04
643.00	234.68
644.00	224.47
645.00	228.31
646.00	227.91
647.00	225.41
648.00	229.01
649.00	223.95
650.00	218.93
651.00	220.62
652.00	217.55
653.00	219.07
654.00	227.37
655.00	226.88
656.00	301.16
657.00	282.44
658.00	241.00
659.00	219.26
660.00	221.81
661.00	221.67
662.00	212.01
663.00	212.19
664.00	231.88
665.00	229.04
666.00	225.79
667.00	221.57
668.00	226.03
669.00	220.86
670.00	219.33
671.00	216.44
672.00	218.12
673.00	220.00
674.00	212.93
675.00	240.44
676.00	250.95
677.00	225.87
678.00	216.68
679.00	211.28
680.00	211.48
681.00	215.11
682.00	217.65
683.00	212.69
684.00	216.06
685.00	220.19
686.00	209.18
687.00	215.90
688.00	229.77
689.00	222.68
690.00	213.19
691.00	213.85
692.00	213.27
693.00	217.89
694.00	231.33
695.00	222.01
696.00	247.01
697.00	350.59
698.00	255.93
699.00	227.42
700.00	220.97
701.00	216.33
702.00	216.09
703.00	242.14
704.00	233.89
705.00	218.41
706.00	216.91
707.00	298.32
708.00	241.98
709.00	221.97
710.00	209.71
711.00	213.61
712.00	211.43
713.00	212.83
714.00	209.58
715.00	220.35
716.00	217.00
717.00	211.71
718.00	204.87
719.00	207.01
720.00	212.67
721.00	216.87
722.00	215.03
723.00	214.14
724.00	213.08
725.00	235.12
726.00	213.63
727.00	224.90
728.00	235.28
729.00	215.76
730.00	208.55
731.00	213.83
732.00	209.62
733.00	215.10
734.00	210.12
735.00	213.10
736.00	227.90
737.00	230.10
738.00	270.56
739.00	330.63
740.00	240.84
741.00	215.96
742.00	215.91
743.00	211.97
744.00	216.11
745.00	218.64
746.00	208.72
747.00	203.26
748.00	210.36
749.00	212.03
750.00	260.36
751.00	531.10
752.00	455.57
753.00	293.03
754.00	232.64
755.00	211.40
756.00	209.99
757.00	208.78
758.00	214.25
759.00	217.21
760.00	209.79
761.00	208.07
762.00	213.91
763.00	242.17
764.00	799.37
765.00	453.29
766.00	290.48
767.00	221.40
768.00	210.16
769.00	209.27
770.00	206.86
771.00	211.05
772.00	218.12
773.00	336.37
774.00	260.50
775.00	226.42
776.00	212.03
777.00	211.69
778.00	269.00
779.00	234.29
780.00	212.35
781.00	207.95
782.00	203.49
783.00	208.84
784.00	205.90
785.00	206.30
786.00	211.86
787.00	211.73
788.00	208.23
789.00	212.97
790.00	218.88
791.00	213.03
792.00	212.10
793.00	209.01
794.00	212.41
795.00	294.92
796.00	305.86
797.00	240.56
798.00	222.37
799.00	208.69
800.00	210.05
801.00	285.32
802.00	397.14
803.00	294.20
804.00	238.63
805.00	217.17
806.00	215.22
807.00	212.93
808.00	211.95
809.00	212.27
810.00	218.77
811.00	383.67
812.00	1596.40
813.00	958.27
814.00	452.10
815.00	300.49
816.00	215.30
817.00	211.87
818.00	205.49
819.00	206.48
820.00	205.79
821.00	205.21
822.00	203.28
823.00	207.97
824.00	204.62
825.00	212.11
826.00	204.47
827.00	269.33
828.00	233.89
829.00	216.37
830.00	208.25
831.00	206.50
832.00	205.18
833.00	203.67
834.00	205.99
835.00	204.04
836.00	204.08
837.00	206.47
838.00	207.83
839.00	210.16
840.00	205.28
841.00	250.91
842.00	279.23
843.00	396.91
844.00	301.20
845.00	246.05
846.00	222.59
847.00	208.10
848.00	203.92
849.00	204.93
850.00	205.18
851.00	205.34
852.00	210.60
853.00	246.39
854.00	221.80
855.00	200.34
856.00	213.78
857.00	204.64
858.00	205.44
859.00	203.96
860.00	205.11
861.00	208.46
862.00	206.46
863.00	204.93
864.00	211.04
865.00	207.74
866.00	205.23
867.00	211.67
868.00	213.00
869.00	206.22
870.00	203.42
871.00	201.26
872.00	204.86
873.00	207.63
874.00	201.38
875.00	204.26
876.00	207.49
877.00	202.76
878.00	202.57
879.00	205.16
880.00	204.11
881.00	206.72
882.00	208.19
883.00	205.93
884.00	205.00
885.00	203.11
886.00	207.05
887.00	203.88
888.00	206.89
889.00	204.21
890.00	206.11
891.00	206.37
892.00	204.92
893.00	204.34
894.00	201.50
895.00	208.86
896.00	204.33
897.00	196.99
898.00	206.10
899.00	204.43
900.00	201.05
901.00	204.44
902.00	199.68
903.00	207.13
904.00	200.71
905.00	200.15
906.00	208.64
907.00	201.60
908.00	203.04
909.00	202.07
910.00	204.72
911.00	202.83
912.00	216.41
913.00	291.16
914.00	260.77
915.00	229.35
916.00	222.36
917.00	209.56
918.00	208.22
919.00	207.32
920.00	208.92
921.00	207.15
922.00	203.87
923.00	219.91
924.00	210.83
925.00	208.53
926.00	205.00
927.00	208.02
928.00	204.86
929.00	204.80
930.00	204.15
931.00	206.92
932.00	200.09
933.00	203.40
934.00	203.05
935.00	205.01
936.00	203.04
937.00	201.97
938.00	206.41
939.00	201.34
940.00	204.68
941.00	207.40
942.00	204.01
943.00	207.40
944.00	201.25
945.00	211.95
946.00	203.02
947.00	202.13
948.00	205.72
949.00	201.34
950.00	205.65
951.00	205.32
952.00	200.96
953.00	202.10
954.00	203.72
955.00	206.14
956.00	200.44
957.00	207.00
958.00	206.74
959.00	205.95
960.00	206.04
961.00	205.26
962.00	204.75
963.00	200.23
964.00	213.15
965.00	202.00
966.00	204.20
967.00	207.33
968.00	208.97
969.00	207.52
970.00	203.92
971.00	204.34
972.00	203.38
973.00	209.61
974.00	200.62
975.00	204.26
976.00	201.32
977.00	202.19
978.00	205.67
979.00	204.55
980.00	203.92
981.00	199.88
982.00	205.82
983.00	206.45
984.00	204.73
985.00	202.65
986.00	202.99
987.00	205.77
988.00	205.45
989.00	205.44
990.00	200.13
991.00	206.42
992.00	204.27
993.00	201.88
994.00	207.59
995.00	203.12
996.00	203.29
997.00	205.49
998.00	204.16
999.00	203.22
1000.00	206.10
>>>>>End Processed Spectral Data<<<<<
