SpectraSuite Data File
++++++++++++++++++++++++++++++++++++
Date: Tue Oct 18 14:54:17 CDT 2011
User: Helimak
Dark Spectrum Present: No
Reference Spectrum Present: No
Number of Sampled Component Spectra: 1
Spectrometers: USB2G37154
Integration Time (usec): 200000 (USB2G37154)
Spectra Averaged: 1 (USB2G37154)
Boxcar Smoothing: 0 (USB2G37154)
Correct for Electrical Dark: No (USB2G37154)
Strobe/Lamp Enabled: No (USB2G37154)
Correct for Detector Non-linearity: No (USB2G37154)
Correct for Stray Light: No (USB2G37154)
Number of Pixels in Processed Spectrum: 651
>>>>>Begin Processed Spectral Data<<<<<
350.00	199.48
351.00	203.97
352.00	197.67
353.00	200.19
354.00	201.93
355.00	203.95
356.00	207.77
357.00	204.33
358.00	203.51
359.00	206.35
360.00	203.48
361.00	199.54
362.00	205.18
363.00	203.33
364.00	203.64
365.00	202.74
366.00	202.25
367.00	204.73
368.00	200.25
369.00	203.04
370.00	208.01
371.00	204.25
372.00	208.67
373.00	208.93
374.00	212.65
375.00	209.07
376.00	207.87
377.00	211.04
378.00	214.46
379.00	210.15
380.00	213.50
381.00	213.80
382.00	214.25
383.00	217.75
384.00	217.47
385.00	217.25
386.00	217.92
387.00	218.03
388.00	212.78
389.00	213.48
390.00	212.87
391.00	221.91
392.00	219.93
393.00	220.62
394.00	220.15
395.00	217.33
396.00	222.00
397.00	219.71
398.00	211.43
399.00	218.97
400.00	230.99
401.00	236.75
402.00	235.58
403.00	244.32
404.00	245.38
405.00	238.34
406.00	238.01
407.00	243.17
408.00	224.74
409.00	229.70
410.00	227.30
411.00	222.15
412.00	226.34
413.00	225.94
414.00	228.86
415.00	250.14
416.00	236.31
417.00	236.04
418.00	246.91
419.00	298.06
420.00	263.88
421.00	235.16
422.00	244.93
423.00	233.25
424.00	233.83
425.00	281.40
426.00	301.53
427.00	302.25
428.00	263.12
429.00	259.07
430.00	250.58
431.00	245.67
432.00	260.66
433.00	283.82
434.00	419.13
435.00	324.29
436.00	272.44
437.00	266.57
438.00	244.59
439.00	262.26
440.00	257.24
441.00	258.38
442.00	320.02
443.00	267.16
444.00	240.47
445.00	231.01
446.00	228.09
447.00	236.63
448.00	236.12
449.00	237.11
450.00	242.52
451.00	249.70
452.00	239.78
453.00	249.94
454.00	279.71
455.00	260.86
456.00	261.10
457.00	276.69
458.00	313.73
459.00	282.01
460.00	333.98
461.00	288.02
462.00	256.81
463.00	244.58
464.00	236.66
465.00	260.72
466.00	253.62
467.00	240.43
468.00	246.46
469.00	240.28
470.00	244.29
471.00	245.45
472.00	275.21
473.00	280.29
474.00	254.06
475.00	242.31
476.00	279.71
477.00	247.07
478.00	241.39
479.00	247.53
480.00	358.66
481.00	275.01
482.00	252.86
483.00	245.16
484.00	267.47
485.00	287.40
486.00	299.44
487.00	426.55
488.00	383.43
489.00	289.45
490.00	274.87
491.00	261.23
492.00	259.94
493.00	260.03
494.00	254.46
495.00	256.26
496.00	276.42
497.00	259.75
498.00	250.71
499.00	251.99
500.00	276.15
501.00	282.68
502.00	260.01
503.00	249.47
504.00	269.71
505.00	277.95
506.00	282.35
507.00	278.74
508.00	277.61
509.00	267.30
510.00	252.19
511.00	252.99
512.00	256.41
513.00	246.49
514.00	272.07
515.00	261.35
516.00	256.16
517.00	247.30
518.00	261.27
519.00	255.49
520.00	242.84
521.00	245.06
522.00	247.72
523.00	238.12
524.00	251.79
525.00	254.05
526.00	253.28
527.00	243.48
528.00	248.10
529.00	241.01
530.00	241.25
531.00	243.54
532.00	253.19
533.00	260.41
534.00	250.41
535.00	261.04
536.00	262.88
537.00	257.18
538.00	256.59
539.00	250.62
540.00	250.92
541.00	249.08
542.00	250.03
543.00	250.13
544.00	252.48
545.00	257.02
546.00	261.83
547.00	263.24
548.00	258.24
549.00	275.10
550.00	269.87
551.00	260.97
552.00	247.60
553.00	248.31
554.00	248.89
555.00	265.85
556.00	264.85
557.00	256.05
558.00	248.64
559.00	243.22
560.00	256.28
561.00	245.27
562.00	239.07
563.00	240.64
564.00	237.90
565.00	249.67
566.00	250.67
567.00	254.24
568.00	256.08
569.00	250.35
570.00	251.89
571.00	251.25
572.00	236.40
573.00	243.37
574.00	247.85
575.00	238.06
576.00	237.64
577.00	243.17
578.00	237.69
579.00	241.70
580.00	237.17
581.00	233.02
582.00	227.24
583.00	238.75
584.00	235.15
585.00	231.82
586.00	236.96
587.00	239.04
588.00	245.41
589.00	257.57
590.00	242.62
591.00	246.32
592.00	237.91
593.00	244.36
594.00	235.05
595.00	229.09
596.00	228.92
597.00	228.88
598.00	234.97
599.00	239.48
600.00	239.80
601.00	246.20
602.00	241.91
603.00	313.35
604.00	281.67
605.00	257.85
606.00	249.18
607.00	233.29
608.00	225.98
609.00	226.92
610.00	236.91
611.00	248.02
612.00	242.68
613.00	228.72
614.00	231.32
615.00	232.05
616.00	232.09
617.00	251.95
618.00	238.62
619.00	242.46
620.00	227.63
621.00	242.03
622.00	230.02
623.00	226.79
624.00	230.23
625.00	238.06
626.00	235.94
627.00	230.96
628.00	234.04
629.00	233.22
630.00	236.05
631.00	236.43
632.00	227.37
633.00	225.85
634.00	223.87
635.00	224.04
636.00	226.75
637.00	217.76
638.00	226.13
639.00	226.92
640.00	232.28
641.00	232.20
642.00	249.43
643.00	230.37
644.00	226.86
645.00	224.88
646.00	226.00
647.00	225.39
648.00	226.62
649.00	225.55
650.00	221.09
651.00	224.84
652.00	219.85
653.00	220.49
654.00	228.35
655.00	225.16
656.00	300.84
657.00	282.98
658.00	243.99
659.00	225.38
660.00	220.73
661.00	219.43
662.00	214.36
663.00	214.53
664.00	236.20
665.00	232.28
666.00	223.56
667.00	221.29
668.00	225.31
669.00	219.87
670.00	222.31
671.00	218.57
672.00	216.35
673.00	219.01
674.00	213.26
675.00	239.15
676.00	241.60
677.00	221.55
678.00	217.04
679.00	216.49
680.00	214.69
681.00	218.59
682.00	220.47
683.00	216.41
684.00	216.88
685.00	215.97
686.00	209.67
687.00	222.52
688.00	229.82
689.00	226.85
690.00	214.66
691.00	213.76
692.00	217.05
693.00	215.32
694.00	232.99
695.00	220.89
696.00	243.01
697.00	325.42
698.00	247.66
699.00	226.09
700.00	217.35
701.00	215.48
702.00	218.82
703.00	235.22
704.00	234.08
705.00	219.46
706.00	214.13
707.00	280.78
708.00	248.25
709.00	220.71
710.00	215.08
711.00	216.43
712.00	217.48
713.00	215.79
714.00	212.08
715.00	218.24
716.00	213.15
717.00	211.15
718.00	212.20
719.00	211.52
720.00	214.01
721.00	214.92
722.00	214.46
723.00	216.39
724.00	213.99
725.00	229.06
726.00	210.70
727.00	216.53
728.00	230.30
729.00	214.47
730.00	209.07
731.00	210.83
732.00	216.36
733.00	205.27
734.00	210.24
735.00	213.00
736.00	226.23
737.00	229.08
738.00	254.19
739.00	311.30
740.00	243.05
741.00	215.95
742.00	211.93
743.00	213.99
744.00	210.03
745.00	222.51
746.00	207.62
747.00	212.83
748.00	210.31
749.00	211.95
750.00	248.33
751.00	484.56
752.00	416.03
753.00	286.12
754.00	229.62
755.00	213.97
756.00	212.30
757.00	209.70
758.00	212.99
759.00	210.04
760.00	207.15
761.00	208.30
762.00	212.20
763.00	238.17
764.00	685.38
765.00	419.08
766.00	278.58
767.00	217.95
768.00	211.34
769.00	204.25
770.00	209.25
771.00	206.75
772.00	213.91
773.00	312.58
774.00	247.62
775.00	226.59
776.00	208.23
777.00	217.40
778.00	262.03
779.00	227.45
780.00	214.04
781.00	209.67
782.00	205.85
783.00	206.34
784.00	204.12
785.00	209.77
786.00	206.28
787.00	209.56
788.00	209.83
789.00	213.02
790.00	215.57
791.00	214.08
792.00	213.00
793.00	210.19
794.00	211.52
795.00	287.21
796.00	289.22
797.00	235.89
798.00	216.27
799.00	208.96
800.00	211.38
801.00	274.58
802.00	364.26
803.00	277.72
804.00	230.73
805.00	213.71
806.00	210.49
807.00	208.83
808.00	209.59
809.00	208.50
810.00	219.60
811.00	361.57
812.00	1323.60
813.00	845.14
814.00	421.49
815.00	283.47
816.00	212.23
817.00	213.21
818.00	209.76
819.00	202.88
820.00	205.99
821.00	207.05
822.00	211.18
823.00	207.32
824.00	205.40
825.00	211.29
826.00	209.77
827.00	258.67
828.00	233.79
829.00	215.68
830.00	206.86
831.00	207.12
832.00	207.26
833.00	206.85
834.00	208.83
835.00	205.13
836.00	205.46
837.00	208.87
838.00	206.16
839.00	203.05
840.00	204.12
841.00	242.77
842.00	265.83
843.00	366.11
844.00	287.54
845.00	239.65
846.00	220.80
847.00	209.70
848.00	202.79
849.00	203.80
850.00	203.18
851.00	202.80
852.00	210.71
853.00	247.78
854.00	213.22
855.00	210.89
856.00	212.83
857.00	203.90
858.00	206.71
859.00	202.01
860.00	202.01
861.00	210.73
862.00	208.27
863.00	206.93
864.00	207.82
865.00	204.24
866.00	206.85
867.00	212.03
868.00	214.01
869.00	205.95
870.00	205.16
871.00	207.75
872.00	208.00
873.00	202.76
874.00	204.65
875.00	202.93
876.00	206.10
877.00	205.14
878.00	208.39
879.00	204.40
880.00	207.15
881.00	202.38
882.00	202.71
883.00	204.31
884.00	202.99
885.00	202.51
886.00	205.22
887.00	203.00
888.00	200.10
889.00	200.85
890.00	205.04
891.00	206.62
892.00	207.39
893.00	205.65
894.00	198.62
895.00	203.90
896.00	207.02
897.00	205.39
898.00	203.14
899.00	206.06
900.00	204.01
901.00	203.18
902.00	204.87
903.00	206.23
904.00	203.16
905.00	205.80
906.00	207.07
907.00	207.53
908.00	201.50
909.00	205.51
910.00	203.12
911.00	204.97
912.00	213.77
913.00	275.36
914.00	247.95
915.00	225.74
916.00	219.10
917.00	206.73
918.00	211.77
919.00	202.50
920.00	205.06
921.00	204.41
922.00	201.91
923.00	214.06
924.00	211.10
925.00	209.10
926.00	207.99
927.00	205.85
928.00	205.96
929.00	194.47
930.00	205.05
931.00	201.91
932.00	204.61
933.00	202.85
934.00	200.11
935.00	199.77
936.00	206.12
937.00	202.17
938.00	207.27
939.00	203.17
940.00	204.93
941.00	207.02
942.00	207.86
943.00	207.71
944.00	203.04
945.00	209.59
946.00	203.42
947.00	204.93
948.00	205.77
949.00	201.78
950.00	203.16
951.00	207.80
952.00	206.02
953.00	201.91
954.00	200.87
955.00	202.66
956.00	204.00
957.00	205.49
958.00	204.53
959.00	202.95
960.00	207.81
961.00	201.95
962.00	204.92
963.00	206.50
964.00	200.57
965.00	201.57
966.00	204.16
967.00	208.93
968.00	201.97
969.00	207.87
970.00	197.79
971.00	207.48
972.00	203.12
973.00	203.71
974.00	201.96
975.00	202.00
976.00	203.19
977.00	205.30
978.00	207.09
979.00	202.20
980.00	203.74
981.00	198.14
982.00	205.43
983.00	204.02
984.00	203.89
985.00	205.81
986.00	202.47
987.00	202.95
988.00	204.70
989.00	203.69
990.00	202.30
991.00	207.18
992.00	205.71
993.00	202.75
994.00	204.17
995.00	202.05
996.00	203.94
997.00	202.70
998.00	202.37
999.00	205.15
1000.00	204.14
>>>>>End Processed Spectral Data<<<<<
