SpectraSuite Data File
++++++++++++++++++++++++++++++++++++
Date: Tue Oct 18 14:28:37 CDT 2011
User: Helimak
Dark Spectrum Present: No
Reference Spectrum Present: No
Number of Sampled Component Spectra: 1
Spectrometers: USB2G37154
Integration Time (usec): 200000 (USB2G37154)
Spectra Averaged: 1 (USB2G37154)
Boxcar Smoothing: 0 (USB2G37154)
Correct for Electrical Dark: No (USB2G37154)
Strobe/Lamp Enabled: No (USB2G37154)
Correct for Detector Non-linearity: No (USB2G37154)
Correct for Stray Light: No (USB2G37154)
Number of Pixels in Processed Spectrum: 651
>>>>>Begin Processed Spectral Data<<<<<
350.00	201.78
351.00	202.25
352.00	202.12
353.00	201.34
354.00	203.89
355.00	203.70
356.00	206.99
357.00	202.24
358.00	206.75
359.00	204.73
360.00	210.48
361.00	207.97
362.00	210.99
363.00	204.92
364.00	211.85
365.00	209.55
366.00	207.87
367.00	208.97
368.00	213.25
369.00	213.17
370.00	210.02
371.00	209.26
372.00	212.09
373.00	212.86
374.00	214.62
375.00	219.43
376.00	220.09
377.00	221.15
378.00	225.32
379.00	230.18
380.00	229.38
381.00	227.49
382.00	231.97
383.00	236.72
384.00	240.03
385.00	239.40
386.00	244.04
387.00	243.54
388.00	238.19
389.00	230.11
390.00	231.44
391.00	231.99
392.00	240.81
393.00	237.77
394.00	244.17
395.00	232.26
396.00	238.04
397.00	233.50
398.00	237.08
399.00	240.14
400.00	267.47
401.00	286.57
402.00	274.80
403.00	299.67
404.00	297.93
405.00	275.56
406.00	288.03
407.00	312.41
408.00	267.68
409.00	275.37
410.00	282.70
411.00	252.77
412.00	256.34
413.00	258.49
414.00	252.35
415.00	317.52
416.00	296.53
417.00	271.73
418.00	303.81
419.00	414.10
420.00	347.12
421.00	278.57
422.00	316.78
423.00	288.57
424.00	273.09
425.00	380.23
426.00	459.34
427.00	456.80
428.00	343.67
429.00	333.14
430.00	318.43
431.00	283.41
432.00	344.61
433.00	437.09
434.00	1009.70
435.00	619.77
436.00	412.02
437.00	373.63
438.00	315.14
439.00	400.92
440.00	363.97
441.00	346.28
442.00	668.55
443.00	429.38
444.00	295.07
445.00	254.77
446.00	256.19
447.00	294.24
448.00	284.09
449.00	274.05
450.00	288.38
451.00	288.18
452.00	287.52
453.00	310.72
454.00	396.06
455.00	328.42
456.00	315.77
457.00	372.91
458.00	500.36
459.00	413.27
460.00	637.06
461.00	459.80
462.00	319.45
463.00	290.86
464.00	276.65
465.00	355.62
466.00	307.21
467.00	280.81
468.00	276.24
469.00	284.46
470.00	280.17
471.00	287.74
472.00	378.32
473.00	434.38
474.00	314.88
475.00	296.88
476.00	417.39
477.00	314.21
478.00	274.94
479.00	298.52
480.00	747.90
481.00	426.17
482.00	309.36
483.00	277.70
484.00	379.62
485.00	409.26
486.00	416.52
487.00	951.38
488.00	765.42
489.00	446.32
490.00	334.08
491.00	310.75
492.00	312.53
493.00	335.34
494.00	302.74
495.00	294.72
496.00	404.35
497.00	322.83
498.00	291.13
499.00	287.93
500.00	371.32
501.00	431.71
502.00	325.05
503.00	297.92
504.00	323.19
505.00	356.05
506.00	372.32
507.00	357.74
508.00	345.26
509.00	320.07
510.00	301.85
511.00	296.96
512.00	294.10
513.00	304.39
514.00	401.27
515.00	324.07
516.00	310.11
517.00	289.74
518.00	319.45
519.00	300.31
520.00	273.45
521.00	278.46
522.00	292.28
523.00	281.79
524.00	287.54
525.00	300.78
526.00	288.68
527.00	277.83
528.00	276.55
529.00	273.00
530.00	268.12
531.00	278.79
532.00	290.46
533.00	292.49
534.00	297.46
535.00	315.41
536.00	303.06
537.00	301.00
538.00	295.56
539.00	288.96
540.00	290.08
541.00	283.88
542.00	297.65
543.00	290.32
544.00	302.54
545.00	308.94
546.00	313.42
547.00	324.76
548.00	294.45
549.00	353.43
550.00	333.43
551.00	315.87
552.00	301.99
553.00	294.47
554.00	289.24
555.00	314.21
556.00	330.64
557.00	309.48
558.00	279.64
559.00	274.38
560.00	305.03
561.00	284.52
562.00	274.03
563.00	263.32
564.00	272.08
565.00	303.10
566.00	277.48
567.00	289.45
568.00	291.98
569.00	288.94
570.00	291.84
571.00	285.26
572.00	267.11
573.00	271.83
574.00	288.45
575.00	269.54
576.00	267.94
577.00	272.72
578.00	269.08
579.00	262.97
580.00	263.62
581.00	252.18
582.00	253.16
583.00	266.13
584.00	255.87
585.00	255.15
586.00	262.11
587.00	266.95
588.00	289.08
589.00	305.28
590.00	273.59
591.00	278.91
592.00	270.27
593.00	268.99
594.00	264.02
595.00	249.38
596.00	248.37
597.00	252.18
598.00	261.49
599.00	270.92
600.00	271.16
601.00	279.21
602.00	292.53
603.00	427.88
604.00	371.03
605.00	310.29
606.00	293.46
607.00	258.51
608.00	246.49
609.00	247.81
610.00	264.98
611.00	319.58
612.00	295.19
613.00	260.62
614.00	257.55
615.00	263.91
616.00	261.63
617.00	317.88
618.00	274.76
619.00	263.68
620.00	254.51
621.00	267.75
622.00	258.69
623.00	243.65
624.00	268.16
625.00	277.05
626.00	267.17
627.00	260.26
628.00	264.15
629.00	259.34
630.00	265.02
631.00	267.31
632.00	247.12
633.00	241.22
634.00	235.01
635.00	235.91
636.00	241.05
637.00	244.20
638.00	239.36
639.00	246.00
640.00	254.89
641.00	269.24
642.00	297.39
643.00	256.00
644.00	250.69
645.00	247.04
646.00	257.95
647.00	250.41
648.00	248.15
649.00	243.08
650.00	238.30
651.00	237.25
652.00	237.07
653.00	236.01
654.00	243.86
655.00	244.99
656.00	423.22
657.00	377.89
658.00	286.98
659.00	246.49
660.00	236.93
661.00	235.61
662.00	225.66
663.00	220.27
664.00	280.08
665.00	272.36
666.00	243.12
667.00	232.76
668.00	253.27
669.00	255.72
670.00	235.56
671.00	225.52
672.00	232.91
673.00	230.01
674.00	227.14
675.00	282.36
676.00	290.73
677.00	244.62
678.00	228.15
679.00	227.42
680.00	221.79
681.00	222.00
682.00	229.19
683.00	222.47
684.00	225.95
685.00	228.91
686.00	227.22
687.00	260.71
688.00	252.20
689.00	249.12
690.00	232.17
691.00	228.94
692.00	222.46
693.00	229.42
694.00	260.24
695.00	245.00
696.00	290.02
697.00	489.00
698.00	301.15
699.00	243.65
700.00	234.65
701.00	229.35
702.00	230.08
703.00	273.78
704.00	262.65
705.00	239.26
706.00	232.30
707.00	395.44
708.00	291.42
709.00	242.53
710.00	221.73
711.00	223.38
712.00	225.64
713.00	221.51
714.00	225.81
715.00	241.86
716.00	232.64
717.00	224.03
718.00	217.43
719.00	218.80
720.00	217.96
721.00	226.20
722.00	223.12
723.00	223.81
724.00	223.57
725.00	240.36
726.00	224.89
727.00	247.18
728.00	276.41
729.00	238.50
730.00	220.81
731.00	221.96
732.00	225.93
733.00	218.89
734.00	221.74
735.00	225.14
736.00	249.24
737.00	264.06
738.00	341.04
739.00	463.90
740.00	295.69
741.00	239.12
742.00	227.10
743.00	222.93
744.00	227.87
745.00	227.19
746.00	217.71
747.00	213.69
748.00	219.12
749.00	226.72
750.00	326.75
751.00	907.27
752.00	706.79
753.00	390.03
754.00	250.00
755.00	219.23
756.00	214.16
757.00	215.22
758.00	213.09
759.00	217.02
760.00	219.65
761.00	216.41
762.00	221.69
763.00	277.13
764.00	1494.54
765.00	728.50
766.00	381.19
767.00	251.17
768.00	218.05
769.00	210.56
770.00	210.58
771.00	214.75
772.00	235.94
773.00	469.96
774.00	310.40
775.00	249.71
776.00	214.12
777.00	239.00
778.00	399.02
779.00	281.36
780.00	234.67
781.00	212.12
782.00	206.28
783.00	207.79
784.00	213.00
785.00	208.21
786.00	214.05
787.00	219.69
788.00	217.11
789.00	223.01
790.00	228.29
791.00	224.79
792.00	216.01
793.00	220.19
794.00	218.83
795.00	403.54
796.00	413.14
797.00	275.48
798.00	243.47
799.00	217.92
800.00	218.65
801.00	379.66
802.00	610.86
803.00	389.73
804.00	275.05
805.00	226.31
806.00	224.67
807.00	214.00
808.00	216.91
809.00	218.63
810.00	234.39
811.00	582.19
812.00	2902.21
813.00	1685.66
814.00	681.16
815.00	384.43
816.00	229.90
817.00	218.53
818.00	209.34
819.00	209.23
820.00	208.10
821.00	208.96
822.00	209.53
823.00	204.96
824.00	209.92
825.00	219.28
826.00	216.27
827.00	332.98
828.00	271.60
829.00	228.66
830.00	215.13
831.00	207.98
832.00	205.19
833.00	206.04
834.00	204.15
835.00	205.55
836.00	207.45
837.00	205.95
838.00	208.31
839.00	209.97
840.00	210.71
841.00	303.53
842.00	349.36
843.00	610.03
844.00	407.15
845.00	294.13
846.00	254.89
847.00	214.76
848.00	208.45
849.00	206.71
850.00	207.14
851.00	206.78
852.00	222.88
853.00	300.06
854.00	233.15
855.00	214.74
856.00	220.36
857.00	205.60
858.00	206.89
859.00	209.12
860.00	203.63
861.00	210.33
862.00	208.05
863.00	209.30
864.00	214.74
865.00	208.19
866.00	203.33
867.00	217.80
868.00	218.99
869.00	210.67
870.00	207.14
871.00	209.53
872.00	210.02
873.00	209.25
874.00	205.12
875.00	202.88
876.00	207.92
877.00	205.67
878.00	205.02
879.00	205.57
880.00	203.94
881.00	207.94
882.00	202.11
883.00	204.72
884.00	206.01
885.00	202.23
886.00	206.47
887.00	202.88
888.00	203.13
889.00	205.47
890.00	206.82
891.00	213.95
892.00	204.46
893.00	202.34
894.00	201.94
895.00	209.96
896.00	204.29
897.00	202.79
898.00	204.26
899.00	202.50
900.00	206.75
901.00	201.73
902.00	206.78
903.00	210.67
904.00	200.44
905.00	210.09
906.00	207.99
907.00	206.20
908.00	202.37
909.00	204.29
910.00	208.66
911.00	210.00
912.00	230.15
913.00	401.90
914.00	311.58
915.00	263.20
916.00	238.32
917.00	222.41
918.00	207.40
919.00	202.73
920.00	208.79
921.00	204.77
922.00	213.48
923.00	230.74
924.00	229.50
925.00	217.39
926.00	208.98
927.00	212.12
928.00	205.75
929.00	205.00
930.00	207.06
931.00	203.71
932.00	202.65
933.00	204.36
934.00	203.90
935.00	204.31
936.00	207.55
937.00	203.94
938.00	206.25
939.00	205.00
940.00	204.05
941.00	205.93
942.00	205.89
943.00	194.10
944.00	203.14
945.00	210.14
946.00	201.62
947.00	204.94
948.00	202.51
949.00	200.66
950.00	203.56
951.00	207.46
952.00	208.08
953.00	204.68
954.00	204.11
955.00	205.85
956.00	204.90
957.00	206.52
958.00	204.17
959.00	203.96
960.00	199.27
961.00	203.39
962.00	205.89
963.00	202.86
964.00	204.40
965.00	205.78
966.00	205.32
967.00	210.42
968.00	215.99
969.00	206.38
970.00	205.91
971.00	210.12
972.00	203.47
973.00	206.05
974.00	205.82
975.00	204.02
976.00	202.36
977.00	200.67
978.00	201.17
979.00	204.05
980.00	204.04
981.00	204.24
982.00	207.66
983.00	206.66
984.00	207.68
985.00	206.73
986.00	204.34
987.00	204.20
988.00	206.67
989.00	201.63
990.00	201.30
991.00	205.08
992.00	203.16
993.00	207.14
994.00	206.44
995.00	206.72
996.00	204.25
997.00	205.94
998.00	206.49
999.00	205.25
1000.00	204.34
>>>>>End Processed Spectral Data<<<<<
