SpectraSuite Data File
++++++++++++++++++++++++++++++++++++
Date: Tue Oct 18 14:26:37 CDT 2011
User: Helimak
Dark Spectrum Present: No
Reference Spectrum Present: No
Number of Sampled Component Spectra: 1
Spectrometers: USB2G37154
Integration Time (usec): 100000 (USB2G37154)
Spectra Averaged: 1 (USB2G37154)
Boxcar Smoothing: 0 (USB2G37154)
Correct for Electrical Dark: No (USB2G37154)
Strobe/Lamp Enabled: No (USB2G37154)
Correct for Detector Non-linearity: No (USB2G37154)
Correct for Stray Light: No (USB2G37154)
Number of Pixels in Processed Spectrum: 651
>>>>>Begin Processed Spectral Data<<<<<
350.00	202.52
351.00	201.56
352.00	199.93
353.00	201.41
354.00	203.51
355.00	204.81
356.00	202.87
357.00	201.29
358.00	210.40
359.00	200.31
360.00	203.02
361.00	201.60
362.00	205.44
363.00	205.27
364.00	207.31
365.00	205.64
366.00	205.26
367.00	205.93
368.00	203.32
369.00	205.36
370.00	205.07
371.00	203.89
372.00	205.33
373.00	204.23
374.00	203.50
375.00	201.79
376.00	201.75
377.00	204.36
378.00	200.13
379.00	206.27
380.00	204.00
381.00	206.92
382.00	205.14
383.00	204.84
384.00	203.13
385.00	202.27
386.00	204.90
387.00	207.17
388.00	205.14
389.00	205.83
390.00	205.57
391.00	205.90
392.00	205.33
393.00	206.18
394.00	206.84
395.00	206.48
396.00	206.92
397.00	205.99
398.00	204.20
399.00	203.17
400.00	202.07
401.00	202.34
402.00	207.25
403.00	206.30
404.00	207.53
405.00	206.83
406.00	206.01
407.00	205.76
408.00	203.35
409.00	206.34
410.00	204.64
411.00	203.47
412.00	208.47
413.00	206.97
414.00	202.85
415.00	206.68
416.00	207.14
417.00	204.36
418.00	206.64
419.00	204.90
420.00	204.95
421.00	207.81
422.00	206.77
423.00	204.94
424.00	204.70
425.00	203.41
426.00	208.11
427.00	209.11
428.00	203.11
429.00	204.77
430.00	203.16
431.00	208.69
432.00	204.64
433.00	204.88
434.00	206.07
435.00	205.79
436.00	207.09
437.00	205.90
438.00	203.17
439.00	204.26
440.00	206.10
441.00	203.80
442.00	206.91
443.00	206.64
444.00	202.94
445.00	203.73
446.00	207.13
447.00	203.93
448.00	207.37
449.00	206.98
450.00	204.21
451.00	203.25
452.00	205.09
453.00	208.02
454.00	206.10
455.00	206.96
456.00	205.88
457.00	200.92
458.00	204.26
459.00	206.79
460.00	203.41
461.00	203.81
462.00	203.16
463.00	204.62
464.00	204.05
465.00	207.69
466.00	211.06
467.00	207.67
468.00	207.08
469.00	202.16
470.00	203.41
471.00	203.39
472.00	205.99
473.00	206.08
474.00	204.32
475.00	204.35
476.00	204.23
477.00	203.47
478.00	202.83
479.00	208.44
480.00	206.42
481.00	204.67
482.00	207.74
483.00	207.84
484.00	203.76
485.00	206.63
486.00	206.49
487.00	206.56
488.00	203.58
489.00	205.03
490.00	202.00
491.00	204.47
492.00	205.74
493.00	205.34
494.00	205.74
495.00	204.39
496.00	203.72
497.00	206.04
498.00	206.43
499.00	206.61
500.00	205.05
501.00	202.53
502.00	202.00
503.00	201.62
504.00	207.67
505.00	204.89
506.00	210.45
507.00	210.99
508.00	205.49
509.00	202.03
510.00	202.37
511.00	207.89
512.00	207.54
513.00	204.34
514.00	200.74
515.00	199.84
516.00	199.94
517.00	204.11
518.00	202.40
519.00	205.74
520.00	203.36
521.00	208.25
522.00	204.45
523.00	203.91
524.00	203.37
525.00	207.82
526.00	203.77
527.00	204.32
528.00	204.71
529.00	203.68
530.00	202.05
531.00	202.13
532.00	201.47
533.00	203.80
534.00	203.84
535.00	199.23
536.00	208.18
537.00	205.32
538.00	206.25
539.00	201.05
540.00	200.09
541.00	204.52
542.00	205.21
543.00	204.45
544.00	204.03
545.00	205.20
546.00	205.39
547.00	206.25
548.00	207.05
549.00	202.87
550.00	204.80
551.00	206.03
552.00	203.66
553.00	205.95
554.00	202.04
555.00	206.76
556.00	202.92
557.00	203.11
558.00	203.31
559.00	206.74
560.00	204.08
561.00	201.42
562.00	205.21
563.00	202.88
564.00	199.36
565.00	204.62
566.00	207.51
567.00	209.26
568.00	202.90
569.00	204.41
570.00	204.90
571.00	208.84
572.00	205.83
573.00	207.98
574.00	204.06
575.00	206.75
576.00	206.36
577.00	208.42
578.00	204.38
579.00	202.61
580.00	203.84
581.00	204.45
582.00	205.81
583.00	207.59
584.00	203.49
585.00	203.12
586.00	202.71
587.00	204.08
588.00	202.81
589.00	202.07
590.00	203.70
591.00	205.21
592.00	204.49
593.00	202.38
594.00	203.00
595.00	204.43
596.00	203.56
597.00	202.78
598.00	205.72
599.00	203.82
600.00	196.82
601.00	206.01
602.00	203.19
603.00	199.99
604.00	200.01
605.00	203.94
606.00	203.74
607.00	200.98
608.00	200.32
609.00	202.95
610.00	204.41
611.00	202.92
612.00	201.21
613.00	202.52
614.00	203.46
615.00	202.83
616.00	202.04
617.00	201.02
618.00	201.33
619.00	202.38
620.00	203.36
621.00	199.66
622.00	204.24
623.00	203.70
624.00	202.04
625.00	200.19
626.00	203.02
627.00	204.34
628.00	202.83
629.00	202.27
630.00	203.47
631.00	201.36
632.00	198.62
633.00	198.51
634.00	199.89
635.00	204.03
636.00	205.03
637.00	208.00
638.00	206.20
639.00	203.28
640.00	206.03
641.00	205.76
642.00	203.67
643.00	205.81
644.00	206.82
645.00	206.05
646.00	203.06
647.00	203.90
648.00	205.19
649.00	205.07
650.00	206.04
651.00	204.43
652.00	204.47
653.00	202.71
654.00	206.40
655.00	204.20
656.00	204.36
657.00	203.89
658.00	203.01
659.00	206.20
660.00	205.33
661.00	207.73
662.00	205.50
663.00	207.53
664.00	207.27
665.00	203.24
666.00	206.17
667.00	205.33
668.00	205.30
669.00	202.21
670.00	203.42
671.00	200.39
672.00	204.12
673.00	204.02
674.00	206.07
675.00	200.67
676.00	199.92
677.00	203.38
678.00	203.49
679.00	203.16
680.00	204.46
681.00	207.47
682.00	209.90
683.00	202.67
684.00	208.28
685.00	202.42
686.00	201.58
687.00	199.79
688.00	201.93
689.00	199.52
690.00	202.05
691.00	205.79
692.00	200.89
693.00	203.56
694.00	202.69
695.00	200.93
696.00	202.00
697.00	203.01
698.00	201.91
699.00	200.05
700.00	203.05
701.00	202.96
702.00	206.05
703.00	207.58
704.00	205.43
705.00	201.58
706.00	201.47
707.00	205.88
708.00	202.38
709.00	202.13
710.00	202.54
711.00	203.36
712.00	205.75
713.00	202.58
714.00	201.43
715.00	202.17
716.00	202.13
717.00	204.36
718.00	205.97
719.00	204.83
720.00	205.37
721.00	199.66
722.00	202.72
723.00	202.15
724.00	203.17
725.00	212.66
726.00	204.99
727.00	203.71
728.00	204.09
729.00	204.54
730.00	201.38
731.00	201.56
732.00	203.30
733.00	200.17
734.00	202.64
735.00	201.29
736.00	205.13
737.00	202.34
738.00	204.12
739.00	204.84
740.00	200.93
741.00	201.87
742.00	203.98
743.00	203.93
744.00	203.10
745.00	203.71
746.00	206.56
747.00	205.01
748.00	207.23
749.00	207.47
750.00	205.47
751.00	204.25
752.00	205.55
753.00	204.41
754.00	201.59
755.00	205.78
756.00	204.75
757.00	199.28
758.00	205.55
759.00	203.99
760.00	204.87
761.00	200.23
762.00	200.05
763.00	201.94
764.00	203.02
765.00	202.11
766.00	203.21
767.00	206.10
768.00	201.53
769.00	201.29
770.00	204.25
771.00	204.57
772.00	201.71
773.00	204.58
774.00	201.34
775.00	203.97
776.00	204.46
777.00	204.28
778.00	203.02
779.00	205.96
780.00	201.87
781.00	203.18
782.00	203.01
783.00	202.01
784.00	205.97
785.00	202.57
786.00	204.11
787.00	204.30
788.00	206.58
789.00	208.03
790.00	202.86
791.00	202.23
792.00	200.65
793.00	205.58
794.00	203.25
795.00	202.02
796.00	206.85
797.00	199.77
798.00	201.00
799.00	204.91
800.00	203.78
801.00	204.48
802.00	201.61
803.00	205.75
804.00	203.17
805.00	199.78
806.00	205.14
807.00	204.96
808.00	202.25
809.00	206.99
810.00	205.76
811.00	200.76
812.00	203.24
813.00	205.97
814.00	205.96
815.00	202.20
816.00	200.78
817.00	203.18
818.00	201.81
819.00	202.89
820.00	201.08
821.00	203.96
822.00	204.08
823.00	205.43
824.00	206.70
825.00	207.00
826.00	202.67
827.00	204.76
828.00	203.19
829.00	204.87
830.00	204.95
831.00	205.64
832.00	205.43
833.00	202.05
834.00	199.11
835.00	203.99
836.00	202.03
837.00	205.37
838.00	202.08
839.00	204.98
840.00	199.38
841.00	204.01
842.00	200.95
843.00	203.85
844.00	197.52
845.00	203.71
846.00	205.45
847.00	203.32
848.00	201.34
849.00	202.16
850.00	202.97
851.00	202.14
852.00	201.77
853.00	202.34
854.00	205.95
855.00	202.25
856.00	204.48
857.00	202.60
858.00	202.10
859.00	204.38
860.00	199.68
861.00	206.14
862.00	204.75
863.00	201.59
864.00	205.28
865.00	205.13
866.00	203.14
867.00	198.31
868.00	206.97
869.00	204.73
870.00	202.68
871.00	203.81
872.00	202.91
873.00	200.19
874.00	201.23
875.00	204.13
876.00	206.00
877.00	202.59
878.00	200.82
879.00	202.38
880.00	202.85
881.00	202.94
882.00	202.13
883.00	205.19
884.00	205.00
885.00	197.02
886.00	205.52
887.00	201.66
888.00	201.95
889.00	200.32
890.00	206.76
891.00	203.07
892.00	201.56
893.00	202.74
894.00	207.75
895.00	204.77
896.00	204.49
897.00	199.77
898.00	206.89
899.00	204.29
900.00	205.55
901.00	201.84
902.00	202.83
903.00	207.81
904.00	199.47
905.00	206.02
906.00	202.15
907.00	202.42
908.00	201.25
909.00	208.43
910.00	200.97
911.00	206.09
912.00	201.94
913.00	201.85
914.00	204.89
915.00	202.20
916.00	198.44
917.00	199.07
918.00	204.53
919.00	205.64
920.00	202.87
921.00	207.12
922.00	201.53
923.00	206.11
924.00	202.57
925.00	202.06
926.00	201.00
927.00	200.75
928.00	205.23
929.00	203.38
930.00	205.17
931.00	204.12
932.00	204.42
933.00	200.04
934.00	202.92
935.00	200.57
936.00	201.51
937.00	203.03
938.00	201.07
939.00	199.37
940.00	200.88
941.00	205.53
942.00	206.03
943.00	201.80
944.00	202.66
945.00	205.03
946.00	197.29
947.00	203.94
948.00	203.66
949.00	203.40
950.00	203.39
951.00	206.91
952.00	203.03
953.00	201.36
954.00	200.92
955.00	204.26
956.00	200.72
957.00	204.22
958.00	198.14
959.00	205.95
960.00	204.69
961.00	199.31
962.00	205.99
963.00	202.98
964.00	200.67
965.00	204.93
966.00	204.58
967.00	203.07
968.00	202.99
969.00	203.02
970.00	201.52
971.00	203.24
972.00	204.63
973.00	206.29
974.00	205.11
975.00	207.68
976.00	204.78
977.00	203.17
978.00	204.07
979.00	202.30
980.00	204.04
981.00	202.62
982.00	202.72
983.00	204.03
984.00	204.57
985.00	206.00
986.00	205.12
987.00	201.48
988.00	206.43
989.00	202.52
990.00	202.23
991.00	203.92
992.00	203.82
993.00	204.34
994.00	204.48
995.00	202.51
996.00	204.77
997.00	201.14
998.00	201.89
999.00	203.30
1000.00	205.85
>>>>>End Processed Spectral Data<<<<<
