SpectraSuite Data File
++++++++++++++++++++++++++++++++++++
Date: Tue Oct 18 14:49:22 CDT 2011
User: Helimak
Dark Spectrum Present: No
Reference Spectrum Present: No
Number of Sampled Component Spectra: 1
Spectrometers: USB2G37154
Integration Time (usec): 200000 (USB2G37154)
Spectra Averaged: 1 (USB2G37154)
Boxcar Smoothing: 0 (USB2G37154)
Correct for Electrical Dark: No (USB2G37154)
Strobe/Lamp Enabled: No (USB2G37154)
Correct for Detector Non-linearity: No (USB2G37154)
Correct for Stray Light: No (USB2G37154)
Number of Pixels in Processed Spectrum: 651
>>>>>Begin Processed Spectral Data<<<<<
350.00	198.57
351.00	204.38
352.00	200.84
353.00	200.95
354.00	201.04
355.00	206.77
356.00	201.80
357.00	206.56
358.00	207.69
359.00	207.60
360.00	205.64
361.00	204.66
362.00	210.54
363.00	210.34
364.00	207.80
365.00	209.12
366.00	204.97
367.00	206.76
368.00	207.43
369.00	209.08
370.00	207.04
371.00	210.67
372.00	213.56
373.00	213.87
374.00	209.22
375.00	215.28
376.00	212.52
377.00	213.10
378.00	219.09
379.00	218.41
380.00	223.86
381.00	217.59
382.00	218.91
383.00	225.97
384.00	235.28
385.00	232.81
386.00	227.98
387.00	230.82
388.00	224.59
389.00	218.41
390.00	219.34
391.00	225.33
392.00	231.39
393.00	229.61
394.00	229.02
395.00	228.99
396.00	229.02
397.00	222.75
398.00	223.68
399.00	227.37
400.00	245.69
401.00	263.32
402.00	261.76
403.00	265.82
404.00	277.11
405.00	251.22
406.00	272.03
407.00	278.36
408.00	251.44
409.00	254.71
410.00	255.67
411.00	238.18
412.00	241.39
413.00	239.29
414.00	237.20
415.00	294.74
416.00	274.88
417.00	257.18
418.00	283.99
419.00	385.19
420.00	325.62
421.00	257.51
422.00	284.14
423.00	264.95
424.00	257.24
425.00	347.99
426.00	395.73
427.00	389.80
428.00	313.15
429.00	301.97
430.00	291.69
431.00	262.92
432.00	305.93
433.00	371.98
434.00	710.61
435.00	461.19
436.00	337.67
437.00	317.73
438.00	283.20
439.00	335.35
440.00	306.58
441.00	307.72
442.00	496.34
443.00	354.13
444.00	270.15
445.00	243.57
446.00	243.18
447.00	261.24
448.00	260.94
449.00	255.09
450.00	273.84
451.00	272.94
452.00	268.43
453.00	273.98
454.00	332.39
455.00	303.47
456.00	296.57
457.00	332.57
458.00	410.82
459.00	349.31
460.00	499.74
461.00	382.48
462.00	294.52
463.00	266.12
464.00	254.92
465.00	310.88
466.00	281.75
467.00	260.76
468.00	260.40
469.00	271.06
470.00	268.55
471.00	263.51
472.00	334.70
473.00	343.75
474.00	283.42
475.00	267.57
476.00	345.98
477.00	284.64
478.00	256.74
479.00	271.06
480.00	552.86
481.00	348.97
482.00	277.05
483.00	263.91
484.00	323.02
485.00	355.94
486.00	359.03
487.00	702.83
488.00	577.08
489.00	370.84
490.00	303.02
491.00	286.96
492.00	287.86
493.00	302.55
494.00	274.46
495.00	276.47
496.00	345.26
497.00	292.04
498.00	275.50
499.00	272.64
500.00	323.02
501.00	348.09
502.00	290.02
503.00	276.73
504.00	302.19
505.00	319.21
506.00	337.17
507.00	324.28
508.00	312.08
509.00	293.90
510.00	274.33
511.00	270.96
512.00	267.04
513.00	280.08
514.00	344.06
515.00	291.44
516.00	283.51
517.00	270.45
518.00	291.58
519.00	281.09
520.00	254.66
521.00	261.85
522.00	271.10
523.00	268.11
524.00	266.94
525.00	279.12
526.00	263.79
527.00	256.32
528.00	260.51
529.00	260.01
530.00	251.94
531.00	262.48
532.00	272.46
533.00	278.57
534.00	274.13
535.00	291.30
536.00	282.90
537.00	281.38
538.00	276.24
539.00	271.11
540.00	265.85
541.00	271.63
542.00	282.01
543.00	273.98
544.00	282.60
545.00	289.85
546.00	286.26
547.00	293.69
548.00	278.61
549.00	322.82
550.00	310.83
551.00	291.89
552.00	283.83
553.00	271.12
554.00	266.01
555.00	294.88
556.00	306.46
557.00	286.18
558.00	259.95
559.00	260.50
560.00	286.40
561.00	269.78
562.00	253.95
563.00	256.37
564.00	262.18
565.00	279.05
566.00	277.08
567.00	268.64
568.00	274.93
569.00	271.32
570.00	269.94
571.00	273.05
572.00	252.04
573.00	259.50
574.00	273.77
575.00	249.70
576.00	243.67
577.00	260.35
578.00	254.07
579.00	252.76
580.00	258.05
581.00	239.20
582.00	241.99
583.00	253.53
584.00	252.06
585.00	242.65
586.00	252.42
587.00	253.09
588.00	269.46
589.00	290.02
590.00	255.58
591.00	263.09
592.00	256.22
593.00	257.79
594.00	247.03
595.00	238.44
596.00	238.65
597.00	243.61
598.00	250.79
599.00	257.65
600.00	261.83
601.00	263.23
602.00	267.56
603.00	390.64
604.00	352.09
605.00	291.70
606.00	271.33
607.00	248.63
608.00	238.24
609.00	233.90
610.00	259.06
611.00	283.86
612.00	274.15
613.00	251.24
614.00	246.93
615.00	251.91
616.00	248.74
617.00	291.91
618.00	257.59
619.00	256.12
620.00	243.00
621.00	256.97
622.00	247.31
623.00	231.56
624.00	251.12
625.00	262.50
626.00	252.02
627.00	247.09
628.00	247.11
629.00	249.10
630.00	262.39
631.00	254.39
632.00	238.63
633.00	235.21
634.00	234.60
635.00	229.96
636.00	228.97
637.00	236.21
638.00	235.88
639.00	232.04
640.00	243.34
641.00	247.58
642.00	273.76
643.00	245.40
644.00	241.16
645.00	238.84
646.00	238.96
647.00	243.03
648.00	237.58
649.00	236.09
650.00	227.07
651.00	228.95
652.00	227.30
653.00	227.62
654.00	232.97
655.00	232.88
656.00	376.38
657.00	339.64
658.00	265.98
659.00	239.26
660.00	230.57
661.00	228.24
662.00	224.28
663.00	218.91
664.00	253.82
665.00	245.17
666.00	229.92
667.00	228.14
668.00	243.30
669.00	238.62
670.00	226.20
671.00	220.57
672.00	222.45
673.00	224.03
674.00	219.06
675.00	264.79
676.00	272.83
677.00	231.10
678.00	217.82
679.00	214.37
680.00	217.19
681.00	216.71
682.00	221.95
683.00	218.14
684.00	224.08
685.00	220.58
686.00	220.79
687.00	246.78
688.00	242.07
689.00	234.48
690.00	219.13
691.00	220.85
692.00	216.41
693.00	221.13
694.00	245.42
695.00	238.89
696.00	270.01
697.00	430.29
698.00	275.76
699.00	237.70
700.00	224.55
701.00	227.87
702.00	219.83
703.00	256.73
704.00	249.19
705.00	227.41
706.00	224.39
707.00	354.89
708.00	267.96
709.00	230.11
710.00	215.61
711.00	218.58
712.00	220.57
713.00	219.60
714.00	216.40
715.00	230.51
716.00	225.37
717.00	218.93
718.00	212.26
719.00	209.92
720.00	216.68
721.00	221.18
722.00	220.89
723.00	221.45
724.00	219.54
725.00	243.69
726.00	219.92
727.00	235.41
728.00	252.29
729.00	224.87
730.00	217.06
731.00	217.67
732.00	216.78
733.00	217.30
734.00	214.70
735.00	220.00
736.00	236.76
737.00	243.77
738.00	310.02
739.00	407.49
740.00	270.35
741.00	235.09
742.00	218.06
743.00	215.97
744.00	227.86
745.00	223.49
746.00	205.87
747.00	207.89
748.00	210.95
749.00	215.76
750.00	287.16
751.00	753.47
752.00	583.00
753.00	340.39
754.00	245.23
755.00	215.96
756.00	210.07
757.00	213.62
758.00	217.54
759.00	219.10
760.00	213.22
761.00	214.08
762.00	216.61
763.00	254.98
764.00	1193.80
765.00	602.25
766.00	346.70
767.00	230.57
768.00	211.05
769.00	210.22
770.00	211.81
771.00	210.57
772.00	227.23
773.00	411.91
774.00	285.80
775.00	232.65
776.00	208.35
777.00	224.08
778.00	323.03
779.00	254.19
780.00	216.27
781.00	206.56
782.00	208.17
783.00	210.11
784.00	210.19
785.00	209.82
786.00	211.25
787.00	211.71
788.00	214.07
789.00	218.99
790.00	221.60
791.00	213.55
792.00	213.94
793.00	214.84
794.00	212.44
795.00	360.56
796.00	364.26
797.00	264.20
798.00	234.53
799.00	217.08
800.00	214.37
801.00	337.04
802.00	521.21
803.00	343.16
804.00	260.33
805.00	219.21
806.00	215.06
807.00	210.03
808.00	211.13
809.00	216.69
810.00	227.67
811.00	488.31
812.00	2337.76
813.00	1366.93
814.00	563.23
815.00	335.44
816.00	224.62
817.00	215.40
818.00	210.09
819.00	208.13
820.00	208.45
821.00	208.87
822.00	208.72
823.00	204.80
824.00	202.68
825.00	216.48
826.00	211.55
827.00	298.31
828.00	256.47
829.00	222.94
830.00	213.98
831.00	209.93
832.00	205.62
833.00	207.72
834.00	203.89
835.00	205.16
836.00	203.56
837.00	206.51
838.00	207.11
839.00	207.83
840.00	208.76
841.00	280.64
842.00	316.47
843.00	518.31
844.00	355.29
845.00	267.58
846.00	238.46
847.00	210.79
848.00	209.57
849.00	209.44
850.00	207.25
851.00	202.19
852.00	210.96
853.00	284.13
854.00	225.08
855.00	213.58
856.00	216.46
857.00	205.61
858.00	207.87
859.00	206.25
860.00	202.15
861.00	212.13
862.00	208.86
863.00	204.59
864.00	206.42
865.00	205.07
866.00	208.37
867.00	210.75
868.00	218.02
869.00	211.83
870.00	208.07
871.00	206.80
872.00	205.87
873.00	207.36
874.00	201.85
875.00	203.75
876.00	204.17
877.00	204.19
878.00	211.26
879.00	203.37
880.00	205.01
881.00	207.75
882.00	201.61
883.00	203.70
884.00	210.00
885.00	204.62
886.00	208.06
887.00	207.98
888.00	204.33
889.00	202.46
890.00	204.24
891.00	203.86
892.00	205.22
893.00	206.68
894.00	205.99
895.00	207.77
896.00	203.20
897.00	205.69
898.00	200.86
899.00	200.27
900.00	206.01
901.00	207.68
902.00	208.22
903.00	211.42
904.00	205.13
905.00	206.04
906.00	207.36
907.00	202.21
908.00	203.62
909.00	206.44
910.00	207.55
911.00	206.78
912.00	222.12
913.00	344.74
914.00	284.81
915.00	251.00
916.00	228.29
917.00	217.95
918.00	203.88
919.00	205.76
920.00	202.90
921.00	208.53
922.00	205.96
923.00	224.13
924.00	216.90
925.00	215.07
926.00	210.99
927.00	209.01
928.00	206.27
929.00	201.71
930.00	202.12
931.00	205.83
932.00	205.32
933.00	204.78
934.00	200.93
935.00	203.73
936.00	205.77
937.00	203.88
938.00	204.02
939.00	204.82
940.00	202.58
941.00	206.80
942.00	207.02
943.00	203.09
944.00	203.81
945.00	205.48
946.00	202.49
947.00	199.08
948.00	202.59
949.00	201.45
950.00	201.99
951.00	205.89
952.00	207.02
953.00	205.80
954.00	203.28
955.00	205.33
956.00	199.69
957.00	202.24
958.00	205.87
959.00	205.96
960.00	206.31
961.00	203.95
962.00	206.91
963.00	204.77
964.00	206.50
965.00	203.34
966.00	201.85
967.00	208.19
968.00	213.00
969.00	206.95
970.00	205.07
971.00	206.18
972.00	205.53
973.00	204.83
974.00	205.92
975.00	200.73
976.00	203.19
977.00	207.66
978.00	206.36
979.00	207.10
980.00	203.59
981.00	200.67
982.00	210.81
983.00	205.40
984.00	205.45
985.00	206.23
986.00	196.54
987.00	203.83
988.00	204.94
989.00	203.94
990.00	203.91
991.00	202.12
992.00	200.60
993.00	208.48
994.00	203.62
995.00	203.14
996.00	205.10
997.00	201.55
998.00	202.96
999.00	203.74
1000.00	199.96
>>>>>End Processed Spectral Data<<<<<
