SpectraSuite Data File
++++++++++++++++++++++++++++++++++++
Date: Tue Oct 18 14:54:18 CDT 2011
User: Helimak
Dark Spectrum Present: No
Reference Spectrum Present: No
Number of Sampled Component Spectra: 1
Spectrometers: USB2G37154
Integration Time (usec): 200000 (USB2G37154)
Spectra Averaged: 1 (USB2G37154)
Boxcar Smoothing: 0 (USB2G37154)
Correct for Electrical Dark: No (USB2G37154)
Strobe/Lamp Enabled: No (USB2G37154)
Correct for Detector Non-linearity: No (USB2G37154)
Correct for Stray Light: No (USB2G37154)
Number of Pixels in Processed Spectrum: 651
>>>>>Begin Processed Spectral Data<<<<<
350.00	201.27
351.00	204.66
352.00	201.57
353.00	201.36
354.00	204.40
355.00	205.47
356.00	206.01
357.00	202.53
358.00	206.29
359.00	206.43
360.00	204.32
361.00	204.64
362.00	206.83
363.00	206.15
364.00	207.63
365.00	205.70
366.00	203.83
367.00	203.74
368.00	210.31
369.00	204.95
370.00	206.98
371.00	211.74
372.00	209.47
373.00	207.90
374.00	207.12
375.00	207.31
376.00	205.73
377.00	209.47
378.00	214.99
379.00	213.58
380.00	216.34
381.00	214.23
382.00	215.64
383.00	216.99
384.00	221.29
385.00	219.75
386.00	215.04
387.00	223.57
388.00	217.58
389.00	210.89
390.00	212.53
391.00	215.56
392.00	217.12
393.00	218.35
394.00	221.05
395.00	217.59
396.00	212.90
397.00	215.59
398.00	212.81
399.00	216.10
400.00	228.94
401.00	231.63
402.00	235.23
403.00	244.90
404.00	241.19
405.00	234.87
406.00	236.01
407.00	241.16
408.00	233.02
409.00	233.30
410.00	224.79
411.00	227.33
412.00	226.72
413.00	224.11
414.00	222.54
415.00	251.86
416.00	239.94
417.00	239.73
418.00	248.79
419.00	291.79
420.00	268.80
421.00	237.03
422.00	244.56
423.00	235.59
424.00	237.16
425.00	279.71
426.00	303.93
427.00	306.56
428.00	271.26
429.00	258.26
430.00	257.13
431.00	247.01
432.00	265.10
433.00	294.66
434.00	428.32
435.00	328.84
436.00	274.15
437.00	270.27
438.00	252.20
439.00	266.66
440.00	254.52
441.00	254.37
442.00	339.08
443.00	274.06
444.00	240.12
445.00	232.86
446.00	231.58
447.00	242.46
448.00	239.66
449.00	241.98
450.00	246.06
451.00	249.20
452.00	241.63
453.00	253.18
454.00	280.78
455.00	264.28
456.00	255.25
457.00	278.62
458.00	307.33
459.00	287.61
460.00	336.54
461.00	298.38
462.00	261.02
463.00	243.13
464.00	238.51
465.00	266.28
466.00	248.92
467.00	239.65
468.00	246.87
469.00	244.29
470.00	245.56
471.00	242.42
472.00	275.54
473.00	277.63
474.00	254.63
475.00	249.98
476.00	281.81
477.00	250.67
478.00	240.75
479.00	244.34
480.00	363.15
481.00	279.31
482.00	252.83
483.00	248.66
484.00	267.75
485.00	283.34
486.00	298.26
487.00	425.25
488.00	385.06
489.00	299.35
490.00	267.45
491.00	256.26
492.00	262.43
493.00	262.01
494.00	248.13
495.00	249.76
496.00	283.52
497.00	261.27
498.00	255.21
499.00	253.50
500.00	274.29
501.00	290.20
502.00	257.03
503.00	253.80
504.00	261.55
505.00	278.39
506.00	277.63
507.00	285.55
508.00	280.15
509.00	269.35
510.00	256.52
511.00	254.12
512.00	254.04
513.00	254.00
514.00	279.44
515.00	257.09
516.00	261.77
517.00	256.31
518.00	260.22
519.00	253.04
520.00	240.70
521.00	247.92
522.00	248.46
523.00	243.99
524.00	246.59
525.00	257.20
526.00	251.22
527.00	247.89
528.00	245.85
529.00	240.72
530.00	241.12
531.00	248.09
532.00	254.30
533.00	255.52
534.00	256.75
535.00	268.09
536.00	255.70
537.00	258.77
538.00	251.99
539.00	252.64
540.00	251.45
541.00	247.24
542.00	250.01
543.00	251.02
544.00	254.84
545.00	257.45
546.00	255.03
547.00	268.34
548.00	258.10
549.00	273.89
550.00	276.64
551.00	268.97
552.00	253.44
553.00	246.93
554.00	247.01
555.00	260.31
556.00	267.60
557.00	257.36
558.00	244.29
559.00	242.15
560.00	255.37
561.00	241.57
562.00	239.94
563.00	234.51
564.00	239.82
565.00	251.92
566.00	251.94
567.00	250.74
568.00	257.00
569.00	253.87
570.00	249.97
571.00	249.50
572.00	240.05
573.00	241.35
574.00	241.15
575.00	235.81
576.00	236.68
577.00	241.78
578.00	240.17
579.00	237.75
580.00	237.78
581.00	234.89
582.00	232.50
583.00	238.89
584.00	236.63
585.00	234.78
586.00	237.39
587.00	236.15
588.00	242.33
589.00	256.15
590.00	243.74
591.00	242.22
592.00	237.30
593.00	239.43
594.00	235.02
595.00	227.96
596.00	234.94
597.00	232.64
598.00	231.92
599.00	240.41
600.00	245.55
601.00	247.22
602.00	247.51
603.00	314.50
604.00	287.42
605.00	260.80
606.00	245.54
607.00	232.06
608.00	226.79
609.00	222.91
610.00	239.88
611.00	247.13
612.00	239.30
613.00	232.63
614.00	231.34
615.00	236.10
616.00	232.03
617.00	253.96
618.00	235.17
619.00	239.68
620.00	233.06
621.00	238.96
622.00	233.57
623.00	224.46
624.00	236.58
625.00	234.51
626.00	237.15
627.00	233.29
628.00	237.30
629.00	236.58
630.00	241.39
631.00	238.27
632.00	227.34
633.00	222.10
634.00	221.26
635.00	219.03
636.00	228.88
637.00	228.70
638.00	228.57
639.00	227.08
640.00	229.16
641.00	233.77
642.00	246.71
643.00	236.31
644.00	225.47
645.00	229.13
646.00	225.91
647.00	227.11
648.00	226.93
649.00	221.98
650.00	219.84
651.00	218.85
652.00	216.96
653.00	222.27
654.00	229.49
655.00	225.11
656.00	298.27
657.00	286.18
658.00	241.99
659.00	225.71
660.00	224.60
661.00	216.36
662.00	218.95
663.00	213.76
664.00	239.11
665.00	226.19
666.00	221.01
667.00	222.57
668.00	224.52
669.00	222.98
670.00	216.23
671.00	216.73
672.00	223.15
673.00	216.98
674.00	214.28
675.00	241.37
676.00	248.32
677.00	222.06
678.00	214.95
679.00	215.99
680.00	213.47
681.00	213.42
682.00	218.04
683.00	212.54
684.00	218.51
685.00	219.36
686.00	212.64
687.00	227.31
688.00	224.56
689.00	223.38
690.00	214.96
691.00	217.36
692.00	218.10
693.00	216.20
694.00	232.75
695.00	224.95
696.00	245.01
697.00	333.55
698.00	245.71
699.00	229.58
700.00	217.81
701.00	216.80
702.00	219.19
703.00	235.26
704.00	225.26
705.00	218.23
706.00	216.55
707.00	290.21
708.00	238.88
709.00	222.46
710.00	212.17
711.00	215.70
712.00	211.73
713.00	214.29
714.00	212.22
715.00	219.89
716.00	222.13
717.00	207.10
718.00	209.81
719.00	209.13
720.00	212.99
721.00	214.21
722.00	215.96
723.00	213.51
724.00	216.73
725.00	227.48
726.00	215.68
727.00	222.33
728.00	229.92
729.00	218.01
730.00	214.02
731.00	214.10
732.00	213.42
733.00	209.76
734.00	208.06
735.00	212.67
736.00	223.49
737.00	227.18
738.00	262.75
739.00	311.87
740.00	242.02
741.00	216.10
742.00	209.99
743.00	212.01
744.00	213.84
745.00	219.02
746.00	206.60
747.00	207.19
748.00	213.19
749.00	213.45
750.00	250.79
751.00	488.92
752.00	425.80
753.00	290.52
754.00	226.74
755.00	212.29
756.00	205.04
757.00	210.45
758.00	211.49
759.00	214.80
760.00	209.95
761.00	208.22
762.00	209.95
763.00	238.62
764.00	724.33
765.00	421.34
766.00	282.51
767.00	225.15
768.00	209.37
769.00	210.44
770.00	204.80
771.00	206.92
772.00	216.93
773.00	316.90
774.00	247.09
775.00	221.72
776.00	210.46
777.00	215.45
778.00	268.02
779.00	234.46
780.00	216.17
781.00	204.20
782.00	204.95
783.00	207.11
784.00	208.30
785.00	207.54
786.00	207.95
787.00	214.76
788.00	209.58
789.00	216.01
790.00	212.79
791.00	210.87
792.00	208.24
793.00	207.64
794.00	208.60
795.00	284.92
796.00	295.21
797.00	235.89
798.00	223.23
799.00	206.93
800.00	211.64
801.00	269.81
802.00	368.08
803.00	285.33
804.00	232.54
805.00	211.42
806.00	215.03
807.00	207.92
808.00	214.61
809.00	214.29
810.00	220.86
811.00	360.78
812.00	1370.38
813.00	866.40
814.00	417.73
815.00	286.43
816.00	215.55
817.00	210.26
818.00	205.20
819.00	206.46
820.00	207.57
821.00	202.00
822.00	205.44
823.00	203.61
824.00	204.71
825.00	212.34
826.00	209.01
827.00	258.93
828.00	234.17
829.00	217.01
830.00	210.00
831.00	207.91
832.00	204.30
833.00	206.73
834.00	203.76
835.00	208.50
836.00	210.92
837.00	203.97
838.00	203.40
839.00	205.94
840.00	206.28
841.00	247.33
842.00	265.07
843.00	374.51
844.00	287.38
845.00	238.85
846.00	220.71
847.00	207.69
848.00	204.69
849.00	209.21
850.00	203.87
851.00	207.32
852.00	213.48
853.00	242.34
854.00	215.18
855.00	207.87
856.00	216.22
857.00	207.30
858.00	207.69
859.00	195.36
860.00	204.85
861.00	208.29
862.00	208.66
863.00	202.11
864.00	210.14
865.00	207.37
866.00	207.46
867.00	207.96
868.00	217.00
869.00	209.51
870.00	203.63
871.00	203.72
872.00	211.02
873.00	204.45
874.00	207.53
875.00	207.52
876.00	204.29
877.00	204.77
878.00	203.75
879.00	206.58
880.00	202.66
881.00	205.52
882.00	202.19
883.00	202.13
884.00	205.99
885.00	208.43
886.00	200.53
887.00	205.17
888.00	202.76
889.00	201.36
890.00	207.01
891.00	206.21
892.00	204.87
893.00	210.48
894.00	200.61
895.00	207.73
896.00	205.82
897.00	199.18
898.00	205.68
899.00	203.44
900.00	204.97
901.00	201.36
902.00	199.68
903.00	206.80
904.00	202.84
905.00	200.14
906.00	205.96
907.00	204.48
908.00	199.49
909.00	198.86
910.00	204.18
911.00	205.00
912.00	211.37
913.00	275.17
914.00	250.05
915.00	226.11
916.00	217.72
917.00	209.82
918.00	208.64
919.00	205.06
920.00	204.09
921.00	207.62
922.00	201.11
923.00	217.97
924.00	209.97
925.00	213.13
926.00	208.00
927.00	202.91
928.00	205.43
929.00	202.75
930.00	205.39
931.00	203.61
932.00	204.68
933.00	205.97
934.00	202.69
935.00	203.34
936.00	206.21
937.00	199.09
938.00	208.49
939.00	206.46
940.00	200.46
941.00	203.41
942.00	203.01
943.00	202.28
944.00	203.66
945.00	206.83
946.00	202.07
947.00	205.96
948.00	200.61
949.00	209.76
950.00	201.05
951.00	201.95
952.00	202.01
953.00	204.43
954.00	202.48
955.00	202.01
956.00	205.34
957.00	204.34
958.00	207.79
959.00	206.97
960.00	202.14
961.00	204.16
962.00	202.23
963.00	204.07
964.00	204.12
965.00	205.47
966.00	205.14
967.00	206.17
968.00	207.97
969.00	207.27
970.00	202.59
971.00	202.24
972.00	202.21
973.00	204.11
974.00	205.11
975.00	202.06
976.00	204.03
977.00	204.16
978.00	205.95
979.00	202.98
980.00	200.83
981.00	203.77
982.00	206.41
983.00	207.83
984.00	202.81
985.00	204.40
986.00	204.94
987.00	206.93
988.00	203.23
989.00	200.01
990.00	204.43
991.00	205.70
992.00	201.58
993.00	208.79
994.00	203.24
995.00	201.90
996.00	199.45
997.00	205.27
998.00	203.29
999.00	204.41
1000.00	201.06
>>>>>End Processed Spectral Data<<<<<
