SpectraSuite Data File
++++++++++++++++++++++++++++++++++++
Date: Tue Oct 18 14:35:49 CDT 2011
User: Helimak
Dark Spectrum Present: No
Reference Spectrum Present: No
Number of Sampled Component Spectra: 1
Spectrometers: USB2G37154
Integration Time (usec): 200000 (USB2G37154)
Spectra Averaged: 1 (USB2G37154)
Boxcar Smoothing: 0 (USB2G37154)
Correct for Electrical Dark: No (USB2G37154)
Strobe/Lamp Enabled: No (USB2G37154)
Correct for Detector Non-linearity: No (USB2G37154)
Correct for Stray Light: No (USB2G37154)
Number of Pixels in Processed Spectrum: 651
>>>>>Begin Processed Spectral Data<<<<<
350.00	204.21
351.00	202.63
352.00	200.81
353.00	201.59
354.00	202.70
355.00	206.02
356.00	205.34
357.00	206.43
358.00	209.58
359.00	212.80
360.00	205.42
361.00	208.25
362.00	209.99
363.00	205.34
364.00	209.49
365.00	209.14
366.00	211.66
367.00	213.09
368.00	205.19
369.00	209.65
370.00	214.07
371.00	211.21
372.00	217.54
373.00	213.69
374.00	206.51
375.00	218.00
376.00	211.71
377.00	220.25
378.00	224.73
379.00	222.82
380.00	227.94
381.00	225.38
382.00	225.88
383.00	232.78
384.00	238.86
385.00	240.12
386.00	242.90
387.00	239.60
388.00	234.35
389.00	227.20
390.00	227.29
391.00	235.56
392.00	245.70
393.00	241.24
394.00	253.70
395.00	235.92
396.00	235.01
397.00	229.51
398.00	231.16
399.00	238.02
400.00	267.19
401.00	289.55
402.00	279.45
403.00	294.97
404.00	300.61
405.00	272.05
406.00	299.06
407.00	315.92
408.00	266.51
409.00	275.60
410.00	284.23
411.00	248.07
412.00	264.08
413.00	257.13
414.00	245.53
415.00	330.76
416.00	300.87
417.00	271.55
418.00	318.15
419.00	468.57
420.00	369.60
421.00	278.46
422.00	327.08
423.00	299.27
424.00	278.19
425.00	395.25
426.00	484.50
427.00	489.16
428.00	350.44
429.00	338.36
430.00	324.23
431.00	289.69
432.00	351.60
433.00	450.85
434.00	1100.20
435.00	636.34
436.00	420.74
437.00	385.90
438.00	332.64
439.00	410.66
440.00	363.94
441.00	359.95
442.00	695.13
443.00	448.84
444.00	302.51
445.00	256.96
446.00	260.36
447.00	295.68
448.00	287.55
449.00	270.12
450.00	290.66
451.00	288.65
452.00	290.73
453.00	304.99
454.00	405.92
455.00	331.31
456.00	315.47
457.00	380.82
458.00	531.12
459.00	433.32
460.00	699.95
461.00	493.50
462.00	335.04
463.00	292.90
464.00	279.72
465.00	370.05
466.00	312.51
467.00	278.10
468.00	268.06
469.00	278.06
470.00	280.55
471.00	286.66
472.00	401.37
473.00	445.61
474.00	314.19
475.00	298.37
476.00	438.63
477.00	310.68
478.00	266.83
479.00	293.78
480.00	801.93
481.00	432.78
482.00	308.52
483.00	272.69
484.00	378.06
485.00	408.28
486.00	414.86
487.00	1021.63
488.00	826.86
489.00	447.60
490.00	333.02
491.00	301.16
492.00	312.04
493.00	330.45
494.00	292.32
495.00	292.01
496.00	406.73
497.00	326.12
498.00	285.93
499.00	282.17
500.00	365.54
501.00	439.20
502.00	328.06
503.00	288.55
504.00	315.54
505.00	356.96
506.00	368.37
507.00	353.60
508.00	329.76
509.00	312.14
510.00	283.42
511.00	283.93
512.00	285.33
513.00	304.43
514.00	398.78
515.00	325.69
516.00	305.95
517.00	290.32
518.00	325.19
519.00	299.38
520.00	268.12
521.00	280.51
522.00	287.97
523.00	269.79
524.00	278.63
525.00	292.94
526.00	281.49
527.00	263.76
528.00	270.60
529.00	267.12
530.00	261.79
531.00	266.70
532.00	277.21
533.00	286.53
534.00	292.65
535.00	298.93
536.00	287.43
537.00	289.59
538.00	283.99
539.00	282.63
540.00	282.15
541.00	285.11
542.00	293.53
543.00	283.26
544.00	291.41
545.00	311.49
546.00	298.58
547.00	311.05
548.00	287.45
549.00	353.37
550.00	338.77
551.00	308.95
552.00	303.02
553.00	284.45
554.00	281.34
555.00	312.83
556.00	327.41
557.00	307.39
558.00	269.75
559.00	270.32
560.00	309.31
561.00	283.06
562.00	257.83
563.00	257.99
564.00	269.99
565.00	296.34
566.00	273.54
567.00	277.88
568.00	288.14
569.00	280.73
570.00	279.05
571.00	273.35
572.00	261.99
573.00	270.15
574.00	278.57
575.00	253.03
576.00	250.13
577.00	267.44
578.00	259.49
579.00	257.49
580.00	263.61
581.00	249.25
582.00	248.95
583.00	259.80
584.00	257.02
585.00	251.58
586.00	256.74
587.00	257.14
588.00	288.65
589.00	310.84
590.00	267.26
591.00	267.58
592.00	259.33
593.00	266.11
594.00	255.02
595.00	241.43
596.00	241.21
597.00	253.21
598.00	256.19
599.00	264.40
600.00	269.29
601.00	269.06
602.00	272.83
603.00	450.52
604.00	387.00
605.00	322.10
606.00	293.08
607.00	254.18
608.00	238.56
609.00	240.87
610.00	272.45
611.00	326.51
612.00	309.26
613.00	257.36
614.00	259.82
615.00	263.34
616.00	262.98
617.00	326.87
618.00	275.16
619.00	260.70
620.00	247.01
621.00	270.27
622.00	258.08
623.00	239.65
624.00	262.95
625.00	268.41
626.00	257.11
627.00	247.98
628.00	249.11
629.00	256.52
630.00	268.51
631.00	269.48
632.00	240.00
633.00	240.23
634.00	231.56
635.00	233.98
636.00	238.94
637.00	244.85
638.00	241.45
639.00	240.35
640.00	243.86
641.00	259.93
642.00	296.85
643.00	246.95
644.00	246.06
645.00	240.83
646.00	241.02
647.00	243.19
648.00	239.85
649.00	240.28
650.00	236.45
651.00	232.43
652.00	233.47
653.00	227.39
654.00	241.13
655.00	239.98
656.00	404.10
657.00	377.68
658.00	281.99
659.00	232.47
660.00	234.41
661.00	231.89
662.00	225.70
663.00	224.89
664.00	276.23
665.00	272.50
666.00	241.56
667.00	232.77
668.00	250.40
669.00	256.18
670.00	229.63
671.00	224.94
672.00	228.32
673.00	230.01
674.00	223.16
675.00	283.44
676.00	301.10
677.00	243.40
678.00	223.35
679.00	223.52
680.00	220.89
681.00	218.07
682.00	229.64
683.00	217.39
684.00	222.20
685.00	221.80
686.00	219.76
687.00	266.66
688.00	257.86
689.00	248.49
690.00	229.38
691.00	225.79
692.00	223.62
693.00	231.61
694.00	256.29
695.00	244.10
696.00	287.02
697.00	515.01
698.00	305.97
699.00	245.43
700.00	228.32
701.00	229.72
702.00	225.80
703.00	278.22
704.00	259.81
705.00	235.17
706.00	224.89
707.00	412.42
708.00	292.83
709.00	246.43
710.00	219.63
711.00	223.47
712.00	222.48
713.00	213.92
714.00	222.69
715.00	245.22
716.00	230.11
717.00	221.70
718.00	214.87
719.00	213.82
720.00	218.39
721.00	228.01
722.00	222.77
723.00	218.36
724.00	223.30
725.00	237.60
726.00	220.66
727.00	238.68
728.00	270.95
729.00	234.99
730.00	220.06
731.00	218.75
732.00	222.36
733.00	220.28
734.00	218.24
735.00	221.57
736.00	246.67
737.00	261.39
738.00	348.38
739.00	497.14
740.00	300.58
741.00	240.26
742.00	219.99
743.00	222.97
744.00	234.10
745.00	232.38
746.00	213.84
747.00	213.81
748.00	212.15
749.00	221.35
750.00	309.10
751.00	985.42
752.00	749.76
753.00	399.55
754.00	260.76
755.00	218.56
756.00	218.23
757.00	213.16
758.00	219.11
759.00	217.19
760.00	214.31
761.00	215.41
762.00	222.08
763.00	270.00
764.00	1576.28
765.00	784.98
766.00	403.74
767.00	243.55
768.00	218.38
769.00	212.96
770.00	210.34
771.00	212.67
772.00	228.11
773.00	490.44
774.00	319.06
775.00	251.04
776.00	209.84
777.00	226.69
778.00	355.03
779.00	267.34
780.00	226.61
781.00	212.08
782.00	208.04
783.00	207.99
784.00	211.53
785.00	212.07
786.00	215.19
787.00	213.94
788.00	213.50
789.00	221.99
790.00	223.75
791.00	221.40
792.00	218.31
793.00	218.41
794.00	216.40
795.00	400.93
796.00	434.19
797.00	284.35
798.00	234.99
799.00	212.85
800.00	214.12
801.00	389.55
802.00	641.63
803.00	415.95
804.00	280.75
805.00	224.76
806.00	220.62
807.00	212.84
808.00	216.44
809.00	218.00
810.00	231.10
811.00	586.76
812.00	2927.94
813.00	1794.86
814.00	719.91
815.00	401.22
816.00	226.87
817.00	220.15
818.00	210.30
819.00	212.59
820.00	210.99
821.00	205.99
822.00	214.36
823.00	213.31
824.00	207.06
825.00	217.41
826.00	215.82
827.00	336.74
828.00	271.58
829.00	235.13
830.00	220.31
831.00	209.70
832.00	203.84
833.00	209.02
834.00	207.98
835.00	206.83
836.00	205.98
837.00	207.18
838.00	204.29
839.00	205.99
840.00	212.64
841.00	291.71
842.00	354.64
843.00	621.60
844.00	421.24
845.00	298.82
846.00	254.12
847.00	215.52
848.00	210.94
849.00	206.28
850.00	209.38
851.00	200.94
852.00	220.26
853.00	309.74
854.00	236.74
855.00	222.00
856.00	220.51
857.00	207.36
858.00	207.46
859.00	203.27
860.00	202.84
861.00	216.40
862.00	211.08
863.00	208.99
864.00	210.84
865.00	207.18
866.00	208.80
867.00	219.98
868.00	216.02
869.00	210.12
870.00	211.01
871.00	211.20
872.00	204.06
873.00	204.95
874.00	204.88
875.00	205.40
876.00	209.16
877.00	206.24
878.00	203.12
879.00	207.17
880.00	204.06
881.00	205.51
882.00	207.41
883.00	206.96
884.00	199.99
885.00	203.34
886.00	207.22
887.00	202.93
888.00	204.12
889.00	202.75
890.00	205.90
891.00	206.36
892.00	207.70
893.00	205.83
894.00	203.65
895.00	196.66
896.00	203.26
897.00	201.23
898.00	202.87
899.00	205.44
900.00	206.08
901.00	200.12
902.00	204.66
903.00	211.24
904.00	205.53
905.00	202.03
906.00	205.38
907.00	208.42
908.00	207.40
909.00	204.81
910.00	206.84
911.00	206.69
912.00	227.30
913.00	389.42
914.00	309.37
915.00	266.09
916.00	243.24
917.00	220.90
918.00	207.62
919.00	207.92
920.00	203.81
921.00	207.62
922.00	204.13
923.00	228.72
924.00	222.22
925.00	220.24
926.00	219.00
927.00	209.86
928.00	206.09
929.00	205.49
930.00	206.36
931.00	204.13
932.00	202.55
933.00	208.29
934.00	202.10
935.00	201.58
936.00	202.02
937.00	204.00
938.00	205.21
939.00	206.72
940.00	202.80
941.00	200.50
942.00	206.00
943.00	202.32
944.00	208.17
945.00	209.06
946.00	205.77
947.00	203.18
948.00	201.92
949.00	203.45
950.00	206.15
951.00	204.72
952.00	201.08
953.00	207.48
954.00	204.90
955.00	205.41
956.00	207.15
957.00	208.09
958.00	203.70
959.00	205.88
960.00	204.70
961.00	206.26
962.00	203.00
963.00	203.86
964.00	203.90
965.00	206.14
966.00	204.19
967.00	212.30
968.00	211.99
969.00	208.77
970.00	212.04
971.00	207.02
972.00	200.31
973.00	204.41
974.00	205.19
975.00	202.59
976.00	203.83
977.00	201.27
978.00	208.88
979.00	203.94
980.00	203.18
981.00	206.74
982.00	205.54
983.00	208.71
984.00	202.79
985.00	204.86
986.00	203.64
987.00	207.36
988.00	201.93
989.00	203.88
990.00	201.73
991.00	204.20
992.00	204.42
993.00	203.04
994.00	200.61
995.00	203.78
996.00	201.95
997.00	205.62
998.00	201.15
999.00	201.35
1000.00	200.15
>>>>>End Processed Spectral Data<<<<<
