SpectraSuite Data File
++++++++++++++++++++++++++++++++++++
Date: Tue Oct 18 14:30:41 CDT 2011
User: Helimak
Dark Spectrum Present: No
Reference Spectrum Present: No
Number of Sampled Component Spectra: 1
Spectrometers: USB2G37154
Integration Time (usec): 200000 (USB2G37154)
Spectra Averaged: 1 (USB2G37154)
Boxcar Smoothing: 0 (USB2G37154)
Correct for Electrical Dark: No (USB2G37154)
Strobe/Lamp Enabled: No (USB2G37154)
Correct for Detector Non-linearity: No (USB2G37154)
Correct for Stray Light: No (USB2G37154)
Number of Pixels in Processed Spectrum: 651
>>>>>Begin Processed Spectral Data<<<<<
350.00	200.97
351.00	204.30
352.00	204.15
353.00	205.41
354.00	206.35
355.00	207.39
356.00	211.30
357.00	203.77
358.00	213.71
359.00	211.90
360.00	211.70
361.00	210.10
362.00	212.56
363.00	211.98
364.00	211.80
365.00	211.75
366.00	210.08
367.00	210.85
368.00	212.56
369.00	216.94
370.00	212.07
371.00	214.84
372.00	225.87
373.00	222.66
374.00	218.54
375.00	223.53
376.00	227.99
377.00	235.95
378.00	238.08
379.00	238.21
380.00	245.58
381.00	237.87
382.00	237.61
383.00	248.81
384.00	266.15
385.00	266.96
386.00	260.97
387.00	263.89
388.00	248.96
389.00	237.52
390.00	238.99
391.00	250.40
392.00	270.29
393.00	263.48
394.00	269.60
395.00	255.68
396.00	254.89
397.00	251.34
398.00	248.68
399.00	268.19
400.00	312.63
401.00	349.71
402.00	322.29
403.00	350.47
404.00	357.96
405.00	312.27
406.00	369.11
407.00	401.41
408.00	314.73
409.00	318.42
410.00	334.45
411.00	277.39
412.00	304.61
413.00	294.15
414.00	274.11
415.00	393.81
416.00	342.14
417.00	305.40
418.00	362.98
419.00	579.23
420.00	444.21
421.00	325.30
422.00	421.51
423.00	356.80
424.00	310.95
425.00	510.98
426.00	678.36
427.00	684.02
428.00	452.11
429.00	413.36
430.00	379.74
431.00	326.83
432.00	450.28
433.00	615.11
434.00	1877.51
435.00	1033.27
436.00	585.40
437.00	516.16
438.00	395.11
439.00	574.02
440.00	491.50
441.00	476.02
442.00	1140.54
443.00	642.30
444.00	373.93
445.00	289.97
446.00	282.32
447.00	360.09
448.00	349.86
449.00	304.18
450.00	331.14
451.00	331.12
452.00	327.82
453.00	363.75
454.00	552.73
455.00	405.18
456.00	379.22
457.00	502.24
458.00	803.99
459.00	591.04
460.00	1108.48
461.00	714.37
462.00	423.86
463.00	338.10
464.00	308.09
465.00	476.64
466.00	373.78
467.00	318.65
468.00	301.90
469.00	313.16
470.00	315.52
471.00	321.02
472.00	544.98
473.00	621.19
474.00	391.69
475.00	355.72
476.00	600.49
477.00	375.52
478.00	298.26
479.00	344.48
480.00	1320.82
481.00	599.22
482.00	360.08
483.00	304.48
484.00	512.17
485.00	511.36
486.00	531.18
487.00	1730.29
488.00	1357.10
489.00	618.45
490.00	404.48
491.00	346.86
492.00	348.35
493.00	407.81
494.00	332.28
495.00	327.15
496.00	541.68
497.00	391.86
498.00	316.71
499.00	312.95
500.00	492.95
501.00	620.37
502.00	398.12
503.00	331.79
504.00	366.36
505.00	426.05
506.00	476.23
507.00	420.67
508.00	396.77
509.00	364.33
510.00	323.27
511.00	320.97
512.00	317.79
513.00	359.58
514.00	545.79
515.00	393.68
516.00	362.30
517.00	325.73
518.00	366.84
519.00	337.69
520.00	295.78
521.00	304.66
522.00	313.93
523.00	299.42
524.00	299.55
525.00	326.01
526.00	306.10
527.00	295.37
528.00	301.75
529.00	292.31
530.00	287.32
531.00	297.37
532.00	303.40
533.00	324.78
534.00	326.11
535.00	330.99
536.00	329.35
537.00	322.75
538.00	320.06
539.00	321.05
540.00	319.73
541.00	316.85
542.00	329.60
543.00	314.57
544.00	324.64
545.00	356.19
546.00	340.08
547.00	355.02
548.00	326.98
549.00	418.47
550.00	397.75
551.00	344.90
552.00	324.54
553.00	323.13
554.00	313.50
555.00	359.15
556.00	374.14
557.00	351.68
558.00	298.59
559.00	296.31
560.00	346.64
561.00	308.84
562.00	283.95
563.00	282.10
564.00	289.55
565.00	334.94
566.00	308.07
567.00	310.90
568.00	319.35
569.00	321.36
570.00	308.43
571.00	301.86
572.00	277.01
573.00	291.31
574.00	304.38
575.00	281.57
576.00	268.13
577.00	299.80
578.00	280.34
579.00	274.43
580.00	280.79
581.00	267.32
582.00	260.98
583.00	283.77
584.00	276.85
585.00	263.58
586.00	275.41
587.00	283.08
588.00	321.95
589.00	347.56
590.00	290.56
591.00	300.16
592.00	282.30
593.00	300.85
594.00	283.03
595.00	267.67
596.00	259.74
597.00	270.08
598.00	274.19
599.00	282.64
600.00	290.61
601.00	298.93
602.00	303.61
603.00	541.92
604.00	463.04
605.00	354.25
606.00	322.05
607.00	272.42
608.00	255.61
609.00	260.95
610.00	292.32
611.00	400.01
612.00	366.15
613.00	281.78
614.00	282.95
615.00	285.94
616.00	283.21
617.00	402.74
618.00	312.22
619.00	260.67
620.00	270.22
621.00	299.88
622.00	277.08
623.00	256.46
624.00	301.12
625.00	304.34
626.00	278.26
627.00	270.26
628.00	269.59
629.00	275.28
630.00	291.22
631.00	287.19
632.00	256.02
633.00	250.41
634.00	248.30
635.00	237.03
636.00	249.19
637.00	256.52
638.00	258.05
639.00	259.08
640.00	263.39
641.00	290.21
642.00	331.21
643.00	274.49
644.00	260.34
645.00	252.48
646.00	265.90
647.00	253.81
648.00	265.86
649.00	256.54
650.00	247.67
651.00	242.73
652.00	247.06
653.00	242.52
654.00	256.02
655.00	246.09
656.00	521.08
657.00	453.53
658.00	327.98
659.00	253.34
660.00	245.94
661.00	247.07
662.00	231.72
663.00	231.37
664.00	335.38
665.00	327.98
666.00	261.88
667.00	255.23
668.00	280.55
669.00	286.29
670.00	244.91
671.00	235.03
672.00	234.20
673.00	235.99
674.00	232.26
675.00	335.12
676.00	344.87
677.00	258.11
678.00	240.63
679.00	235.79
680.00	222.69
681.00	228.56
682.00	229.75
683.00	224.72
684.00	229.99
685.00	227.25
686.00	235.33
687.00	299.38
688.00	277.92
689.00	271.03
690.00	236.93
691.00	226.06
692.00	230.74
693.00	237.03
694.00	277.23
695.00	255.08
696.00	330.03
697.00	650.99
698.00	354.38
699.00	262.14
700.00	238.67
701.00	232.77
702.00	237.84
703.00	304.62
704.00	288.02
705.00	249.25
706.00	239.70
707.00	505.21
708.00	334.47
709.00	262.24
710.00	225.72
711.00	234.02
712.00	230.08
713.00	225.67
714.00	227.47
715.00	259.32
716.00	245.92
717.00	227.41
718.00	220.12
719.00	216.95
720.00	223.21
721.00	235.59
722.00	227.64
723.00	228.53
724.00	228.94
725.00	244.25
726.00	227.01
727.00	256.15
728.00	298.39
729.00	244.13
730.00	225.31
731.00	229.21
732.00	233.92
733.00	219.25
734.00	222.27
735.00	236.03
736.00	266.65
737.00	291.92
738.00	416.16
739.00	609.88
740.00	342.84
741.00	255.76
742.00	226.03
743.00	234.06
744.00	248.97
745.00	236.16
746.00	222.45
747.00	215.77
748.00	217.32
749.00	224.86
750.00	380.54
751.00	1331.27
752.00	979.78
753.00	480.59
754.00	278.02
755.00	224.41
756.00	219.78
757.00	217.90
758.00	221.96
759.00	226.16
760.00	224.56
761.00	221.67
762.00	226.81
763.00	298.26
764.00	2235.71
765.00	1022.89
766.00	482.88
767.00	255.22
768.00	222.76
769.00	219.54
770.00	212.04
771.00	216.22
772.00	251.82
773.00	632.19
774.00	366.88
775.00	268.78
776.00	222.50
777.00	250.56
778.00	451.05
779.00	308.74
780.00	239.47
781.00	212.73
782.00	208.01
783.00	210.00
784.00	214.12
785.00	213.05
786.00	215.71
787.00	221.05
788.00	223.22
789.00	225.93
790.00	235.96
791.00	223.27
792.00	226.69
793.00	219.06
794.00	224.22
795.00	507.05
796.00	522.63
797.00	308.43
798.00	254.07
799.00	223.83
800.00	217.05
801.00	475.81
802.00	854.12
803.00	500.60
804.00	310.73
805.00	241.82
806.00	227.29
807.00	215.89
808.00	218.68
809.00	224.55
810.00	248.44
811.00	773.18
812.00	3926.87
813.00	2411.81
814.00	909.71
815.00	448.82
816.00	239.22
817.00	217.93
818.00	218.61
819.00	217.38
820.00	211.27
821.00	208.02
822.00	214.58
823.00	206.25
824.00	208.67
825.00	218.95
826.00	213.65
827.00	393.58
828.00	305.06
829.00	245.58
830.00	224.07
831.00	209.61
832.00	209.79
833.00	201.37
834.00	211.95
835.00	212.41
836.00	209.61
837.00	208.03
838.00	209.87
839.00	215.93
840.00	217.97
841.00	358.25
842.00	434.60
843.00	833.15
844.00	508.93
845.00	335.35
846.00	274.21
847.00	218.33
848.00	207.38
849.00	208.21
850.00	206.11
851.00	204.15
852.00	229.36
853.00	346.53
854.00	247.16
855.00	223.40
856.00	225.60
857.00	209.83
858.00	210.11
859.00	206.17
860.00	206.77
861.00	212.03
862.00	208.65
863.00	212.01
864.00	215.96
865.00	208.89
866.00	208.03
867.00	216.54
868.00	217.05
869.00	213.03
870.00	209.02
871.00	209.83
872.00	208.90
873.00	207.54
874.00	205.89
875.00	204.28
876.00	207.89
877.00	210.27
878.00	207.55
879.00	206.84
880.00	206.64
881.00	210.07
882.00	207.90
883.00	204.65
884.00	205.00
885.00	202.58
886.00	211.87
887.00	207.32
888.00	203.54
889.00	204.14
890.00	211.61
891.00	204.93
892.00	210.16
893.00	206.66
894.00	204.39
895.00	211.56
896.00	201.72
897.00	202.30
898.00	202.95
899.00	207.87
900.00	207.11
901.00	208.59
902.00	206.92
903.00	211.06
904.00	205.68
905.00	200.85
906.00	208.70
907.00	205.93
908.00	208.44
909.00	205.84
910.00	209.56
911.00	212.77
912.00	245.34
913.00	477.40
914.00	364.96
915.00	286.88
916.00	260.84
917.00	230.70
918.00	207.75
919.00	204.80
920.00	207.79
921.00	206.20
922.00	209.37
923.00	243.62
924.00	236.42
925.00	225.35
926.00	215.00
927.00	211.84
928.00	202.86
929.00	203.84
930.00	209.52
931.00	203.95
932.00	205.54
933.00	206.31
934.00	202.02
935.00	200.33
936.00	203.36
937.00	203.14
938.00	207.03
939.00	206.42
940.00	202.40
941.00	205.72
942.00	204.10
943.00	203.69
944.00	202.91
945.00	211.13
946.00	203.59
947.00	205.06
948.00	204.24
949.00	202.87
950.00	200.37
951.00	205.46
952.00	204.03
953.00	202.13
954.00	203.49
955.00	206.86
956.00	205.15
957.00	206.26
958.00	203.76
959.00	204.97
960.00	205.40
961.00	205.45
962.00	204.08
963.00	206.74
964.00	205.70
965.00	204.69
966.00	205.30
967.00	217.21
968.00	214.95
969.00	212.47
970.00	211.60
971.00	207.93
972.00	205.34
973.00	206.08
974.00	204.66
975.00	206.02
976.00	203.82
977.00	199.63
978.00	201.43
979.00	204.55
980.00	205.71
981.00	207.40
982.00	209.22
983.00	206.89
984.00	204.86
985.00	207.70
986.00	203.40
987.00	201.60
988.00	202.87
989.00	208.15
990.00	206.10
991.00	203.89
992.00	207.48
993.00	205.31
994.00	204.12
995.00	203.83
996.00	208.21
997.00	204.64
998.00	202.08
999.00	202.67
1000.00	201.07
>>>>>End Processed Spectral Data<<<<<
