SpectraSuite Data File
++++++++++++++++++++++++++++++++++++
Date: Tue Oct 18 14:28:38 CDT 2011
User: Helimak
Dark Spectrum Present: No
Reference Spectrum Present: No
Number of Sampled Component Spectra: 1
Spectrometers: USB2G37154
Integration Time (usec): 200000 (USB2G37154)
Spectra Averaged: 1 (USB2G37154)
Boxcar Smoothing: 0 (USB2G37154)
Correct for Electrical Dark: No (USB2G37154)
Strobe/Lamp Enabled: No (USB2G37154)
Correct for Detector Non-linearity: No (USB2G37154)
Correct for Stray Light: No (USB2G37154)
Number of Pixels in Processed Spectrum: 651
>>>>>Begin Processed Spectral Data<<<<<
350.00	201.92
351.00	202.15
352.00	204.43
353.00	204.70
354.00	203.50
355.00	206.07
356.00	205.62
357.00	205.89
358.00	209.50
359.00	207.14
360.00	206.73
361.00	208.25
362.00	210.02
363.00	211.37
364.00	213.79
365.00	208.78
366.00	209.39
367.00	207.95
368.00	210.69
369.00	209.10
370.00	219.01
371.00	211.75
372.00	218.39
373.00	215.17
374.00	213.18
375.00	215.92
376.00	220.20
377.00	219.00
378.00	226.75
379.00	226.32
380.00	226.22
381.00	229.94
382.00	235.87
383.00	236.81
384.00	240.61
385.00	243.41
386.00	245.11
387.00	243.51
388.00	235.42
389.00	228.67
390.00	231.90
391.00	229.87
392.00	241.19
393.00	244.00
394.00	246.68
395.00	234.29
396.00	233.02
397.00	230.22
398.00	236.20
399.00	244.54
400.00	269.52
401.00	290.80
402.00	281.65
403.00	299.54
404.00	302.30
405.00	274.26
406.00	297.05
407.00	310.33
408.00	267.95
409.00	275.81
410.00	276.22
411.00	250.17
412.00	265.70
413.00	258.25
414.00	250.50
415.00	315.91
416.00	293.86
417.00	275.53
418.00	304.87
419.00	420.95
420.00	348.95
421.00	276.51
422.00	318.53
423.00	292.56
424.00	273.01
425.00	381.65
426.00	464.49
427.00	467.72
428.00	346.81
429.00	333.21
430.00	316.30
431.00	282.89
432.00	350.10
433.00	437.88
434.00	1032.20
435.00	624.16
436.00	406.93
437.00	382.61
438.00	319.63
439.00	401.37
440.00	362.89
441.00	366.82
442.00	660.47
443.00	434.89
444.00	298.32
445.00	258.86
446.00	258.57
447.00	294.16
448.00	288.42
449.00	275.08
450.00	294.20
451.00	295.99
452.00	288.28
453.00	310.63
454.00	406.87
455.00	338.20
456.00	327.56
457.00	380.10
458.00	512.79
459.00	416.06
460.00	654.53
461.00	486.57
462.00	329.42
463.00	291.83
464.00	276.58
465.00	359.02
466.00	310.32
467.00	280.72
468.00	278.87
469.00	283.88
470.00	279.21
471.00	284.62
472.00	396.36
473.00	429.26
474.00	317.48
475.00	302.15
476.00	419.56
477.00	314.42
478.00	271.99
479.00	300.19
480.00	770.35
481.00	430.06
482.00	310.61
483.00	278.30
484.00	372.11
485.00	411.20
486.00	414.62
487.00	974.36
488.00	783.67
489.00	445.32
490.00	333.49
491.00	313.13
492.00	311.24
493.00	338.44
494.00	295.06
495.00	293.13
496.00	395.56
497.00	325.78
498.00	292.79
499.00	293.21
500.00	370.84
501.00	427.66
502.00	322.05
503.00	294.63
504.00	323.67
505.00	365.38
506.00	381.30
507.00	365.22
508.00	342.78
509.00	321.60
510.00	299.87
511.00	293.92
512.00	291.42
513.00	314.01
514.00	398.85
515.00	328.83
516.00	310.82
517.00	292.47
518.00	321.73
519.00	300.78
520.00	279.20
521.00	284.03
522.00	289.01
523.00	274.98
524.00	279.10
525.00	291.05
526.00	283.29
527.00	271.59
528.00	276.79
529.00	276.11
530.00	271.00
531.00	278.21
532.00	298.17
533.00	297.79
534.00	296.92
535.00	310.68
536.00	308.69
537.00	305.25
538.00	295.49
539.00	293.37
540.00	296.02
541.00	289.59
542.00	299.03
543.00	295.73
544.00	296.10
545.00	319.09
546.00	316.34
547.00	324.12
548.00	302.47
549.00	350.18
550.00	343.58
551.00	314.92
552.00	308.97
553.00	295.23
554.00	287.21
555.00	313.29
556.00	324.14
557.00	309.01
558.00	278.80
559.00	280.00
560.00	304.33
561.00	284.54
562.00	267.07
563.00	264.35
564.00	274.25
565.00	300.05
566.00	284.63
567.00	290.93
568.00	297.20
569.00	294.65
570.00	289.38
571.00	281.50
572.00	260.72
573.00	273.44
574.00	280.65
575.00	267.50
576.00	267.80
577.00	276.96
578.00	270.99
579.00	263.10
580.00	268.28
581.00	256.33
582.00	249.87
583.00	267.13
584.00	252.16
585.00	251.12
586.00	266.13
587.00	263.14
588.00	287.54
589.00	305.74
590.00	268.11
591.00	284.33
592.00	267.43
593.00	273.70
594.00	261.05
595.00	248.04
596.00	244.96
597.00	252.66
598.00	259.38
599.00	268.83
600.00	273.80
601.00	282.38
602.00	282.49
603.00	442.77
604.00	383.83
605.00	322.86
606.00	295.37
607.00	260.82
608.00	244.96
609.00	246.90
610.00	271.81
611.00	322.14
612.00	301.67
613.00	261.35
614.00	258.04
615.00	263.66
616.00	264.28
617.00	317.89
618.00	271.33
619.00	263.84
620.00	251.09
621.00	270.20
622.00	257.93
623.00	244.57
624.00	274.52
625.00	273.29
626.00	263.98
627.00	255.70
628.00	262.72
629.00	267.78
630.00	271.05
631.00	270.12
632.00	247.05
633.00	245.50
634.00	235.31
635.00	240.90
636.00	239.92
637.00	238.80
638.00	244.49
639.00	245.22
640.00	254.32
641.00	269.23
642.00	297.48
643.00	261.64
644.00	249.61
645.00	250.86
646.00	255.03
647.00	250.17
648.00	246.56
649.00	245.67
650.00	237.58
651.00	236.11
652.00	236.79
653.00	237.94
654.00	246.04
655.00	240.46
656.00	434.58
657.00	384.66
658.00	287.98
659.00	241.63
660.00	240.70
661.00	233.42
662.00	227.40
663.00	223.91
664.00	283.69
665.00	276.30
666.00	243.80
667.00	232.29
668.00	251.75
669.00	258.25
670.00	232.68
671.00	226.56
672.00	230.08
673.00	231.02
674.00	230.10
675.00	283.46
676.00	293.72
677.00	249.40
678.00	225.60
679.00	226.59
680.00	220.00
681.00	224.05
682.00	227.83
683.00	224.91
684.00	225.03
685.00	228.28
686.00	224.30
687.00	264.18
688.00	253.96
689.00	253.96
690.00	228.14
691.00	225.01
692.00	219.89
693.00	231.97
694.00	259.74
695.00	245.12
696.00	292.02
697.00	496.96
698.00	302.60
699.00	248.88
700.00	232.56
701.00	231.25
702.00	231.34
703.00	278.44
704.00	263.02
705.00	234.57
706.00	229.61
707.00	403.03
708.00	289.63
709.00	246.42
710.00	221.42
711.00	223.44
712.00	221.86
713.00	218.02
714.00	220.44
715.00	249.50
716.00	230.87
717.00	223.40
718.00	216.08
719.00	213.63
720.00	217.08
721.00	225.32
722.00	221.17
723.00	224.63
724.00	228.80
725.00	241.59
726.00	225.30
727.00	239.13
728.00	262.87
729.00	232.54
730.00	223.88
731.00	224.66
732.00	222.24
733.00	215.57
734.00	218.90
735.00	228.88
736.00	244.05
737.00	263.14
738.00	336.39
739.00	459.26
740.00	292.05
741.00	231.43
742.00	223.96
743.00	222.99
744.00	231.02
745.00	229.37
746.00	215.31
747.00	215.98
748.00	213.49
749.00	224.38
750.00	321.72
751.00	918.58
752.00	697.43
753.00	385.92
754.00	257.05
755.00	217.72
756.00	218.20
757.00	210.03
758.00	214.37
759.00	216.94
760.00	220.70
761.00	218.28
762.00	222.97
763.00	275.98
764.00	1525.76
765.00	734.98
766.00	383.26
767.00	242.25
768.00	217.40
769.00	212.05
770.00	212.46
771.00	212.05
772.00	235.18
773.00	488.78
774.00	307.01
775.00	250.60
776.00	201.43
777.00	238.11
778.00	396.05
779.00	278.77
780.00	234.89
781.00	216.32
782.00	212.25
783.00	206.61
784.00	207.83
785.00	210.52
786.00	215.45
787.00	220.23
788.00	215.04
789.00	220.99
790.00	228.94
791.00	220.24
792.00	214.71
793.00	216.48
794.00	218.39
795.00	398.55
796.00	414.46
797.00	279.53
798.00	238.55
799.00	213.81
800.00	213.27
801.00	377.58
802.00	615.64
803.00	395.36
804.00	272.79
805.00	227.44
806.00	221.34
807.00	215.84
808.00	215.54
809.00	218.96
810.00	239.28
811.00	589.58
812.00	2942.73
813.00	1689.91
814.00	690.22
815.00	384.10
816.00	233.47
817.00	219.37
818.00	214.29
819.00	209.89
820.00	211.01
821.00	206.04
822.00	207.45
823.00	205.79
824.00	204.33
825.00	217.20
826.00	213.34
827.00	330.68
828.00	271.17
829.00	231.62
830.00	224.27
831.00	200.66
832.00	211.70
833.00	209.45
834.00	207.96
835.00	211.06
836.00	206.03
837.00	211.19
838.00	210.05
839.00	207.82
840.00	212.54
841.00	302.36
842.00	356.55
843.00	626.97
844.00	403.90
845.00	295.91
846.00	245.96
847.00	216.43
848.00	209.02
849.00	205.84
850.00	205.94
851.00	205.13
852.00	218.89
853.00	302.00
854.00	233.14
855.00	222.41
856.00	221.33
857.00	208.89
858.00	207.49
859.00	204.09
860.00	203.06
861.00	213.79
862.00	209.82
863.00	208.27
864.00	210.11
865.00	212.48
866.00	207.51
867.00	220.43
868.00	218.03
869.00	210.13
870.00	211.39
871.00	207.92
872.00	209.89
873.00	204.74
874.00	208.38
875.00	203.80
876.00	208.01
877.00	205.49
878.00	203.17
879.00	203.07
880.00	203.00
881.00	203.27
882.00	204.43
883.00	203.52
884.00	201.00
885.00	206.21
886.00	203.51
887.00	208.48
888.00	203.78
889.00	202.26
890.00	203.86
891.00	208.20
892.00	207.68
893.00	200.71
894.00	202.76
895.00	206.91
896.00	206.37
897.00	208.49
898.00	201.08
899.00	205.31
900.00	201.50
901.00	204.59
902.00	203.98
903.00	206.48
904.00	208.23
905.00	203.10
906.00	206.45
907.00	203.83
908.00	205.51
909.00	201.70
910.00	207.43
911.00	213.23
912.00	227.57
913.00	391.66
914.00	319.20
915.00	265.50
916.00	238.28
917.00	220.53
918.00	208.20
919.00	205.32
920.00	207.07
921.00	208.17
922.00	203.19
923.00	231.68
924.00	222.33
925.00	217.84
926.00	210.97
927.00	207.79
928.00	205.24
929.00	204.79
930.00	208.32
931.00	204.44
932.00	203.89
933.00	205.18
934.00	205.27
935.00	202.88
936.00	201.84
937.00	206.98
938.00	203.15
939.00	204.49
940.00	201.69
941.00	203.24
942.00	201.91
943.00	204.88
944.00	202.84
945.00	208.19
946.00	202.31
947.00	206.73
948.00	202.49
949.00	202.96
950.00	213.32
951.00	205.21
952.00	206.98
953.00	203.44
954.00	204.70
955.00	207.94
956.00	207.00
957.00	204.26
958.00	206.72
959.00	203.97
960.00	203.73
961.00	198.55
962.00	207.60
963.00	205.26
964.00	205.65
965.00	204.94
966.00	205.19
967.00	212.06
968.00	209.99
969.00	213.12
970.00	206.55
971.00	208.38
972.00	203.40
973.00	204.58
974.00	202.58
975.00	205.75
976.00	206.53
977.00	203.35
978.00	205.86
979.00	206.93
980.00	203.85
981.00	204.97
982.00	205.76
983.00	207.58
984.00	202.58
985.00	200.45
986.00	200.92
987.00	201.41
988.00	203.53
989.00	206.49
990.00	205.57
991.00	204.01
992.00	202.61
993.00	202.81
994.00	203.53
995.00	204.87
996.00	205.55
997.00	202.32
998.00	203.50
999.00	205.71
1000.00	202.97
>>>>>End Processed Spectral Data<<<<<
