SpectraSuite Data File
++++++++++++++++++++++++++++++++++++
Date: Tue Oct 18 14:40:16 CDT 2011
User: Helimak
Dark Spectrum Present: No
Reference Spectrum Present: No
Number of Sampled Component Spectra: 1
Spectrometers: USB2G37154
Integration Time (usec): 200000 (USB2G37154)
Spectra Averaged: 1 (USB2G37154)
Boxcar Smoothing: 0 (USB2G37154)
Correct for Electrical Dark: No (USB2G37154)
Strobe/Lamp Enabled: No (USB2G37154)
Correct for Detector Non-linearity: No (USB2G37154)
Correct for Stray Light: No (USB2G37154)
Number of Pixels in Processed Spectrum: 651
>>>>>Begin Processed Spectral Data<<<<<
350.00	201.37
351.00	206.55
352.00	199.03
353.00	204.83
354.00	206.21
355.00	205.77
356.00	205.51
357.00	200.98
358.00	203.59
359.00	204.74
360.00	203.41
361.00	203.49
362.00	206.42
363.00	205.26
364.00	205.50
365.00	208.09
366.00	207.51
367.00	207.88
368.00	202.81
369.00	206.29
370.00	210.01
371.00	208.91
372.00	209.03
373.00	207.81
374.00	207.32
375.00	214.90
376.00	207.19
377.00	205.83
378.00	216.07
379.00	213.28
380.00	213.84
381.00	213.83
382.00	215.23
383.00	219.80
384.00	219.33
385.00	219.66
386.00	220.04
387.00	223.75
388.00	218.13
389.00	215.47
390.00	216.79
391.00	216.69
392.00	221.43
393.00	218.49
394.00	226.28
395.00	218.90
396.00	220.01
397.00	215.95
398.00	213.04
399.00	219.51
400.00	224.68
401.00	239.39
402.00	234.75
403.00	243.22
404.00	245.67
405.00	236.37
406.00	237.02
407.00	239.75
408.00	232.22
409.00	233.15
410.00	233.08
411.00	222.98
412.00	228.40
413.00	232.92
414.00	222.44
415.00	261.10
416.00	251.32
417.00	236.61
418.00	249.78
419.00	304.71
420.00	271.02
421.00	238.50
422.00	248.49
423.00	240.42
424.00	238.59
425.00	286.71
426.00	312.82
427.00	315.48
428.00	268.37
429.00	261.14
430.00	253.74
431.00	242.51
432.00	269.73
433.00	299.22
434.00	464.41
435.00	337.76
436.00	281.92
437.00	278.72
438.00	248.80
439.00	277.28
440.00	266.22
441.00	255.63
442.00	347.00
443.00	284.33
444.00	242.52
445.00	233.17
446.00	230.77
447.00	242.26
448.00	238.33
449.00	237.87
450.00	248.49
451.00	250.84
452.00	246.27
453.00	251.78
454.00	279.65
455.00	268.76
456.00	271.53
457.00	275.17
458.00	313.81
459.00	292.42
460.00	359.73
461.00	301.85
462.00	259.79
463.00	243.48
464.00	235.60
465.00	270.78
466.00	246.39
467.00	239.19
468.00	236.29
469.00	245.26
470.00	242.96
471.00	246.15
472.00	274.44
473.00	285.87
474.00	253.73
475.00	246.62
476.00	281.06
477.00	251.58
478.00	237.49
479.00	248.26
480.00	385.65
481.00	282.14
482.00	254.09
483.00	242.49
484.00	277.03
485.00	287.50
486.00	296.07
487.00	462.03
488.00	412.29
489.00	303.40
490.00	265.68
491.00	259.65
492.00	260.62
493.00	263.12
494.00	257.69
495.00	252.08
496.00	274.31
497.00	265.72
498.00	250.43
499.00	252.57
500.00	274.84
501.00	292.69
502.00	260.01
503.00	257.78
504.00	267.32
505.00	274.58
506.00	280.85
507.00	282.59
508.00	274.94
509.00	265.67
510.00	251.31
511.00	254.08
512.00	253.27
513.00	249.58
514.00	282.73
515.00	263.64
516.00	253.16
517.00	248.58
518.00	260.59
519.00	262.16
520.00	245.67
521.00	244.26
522.00	248.30
523.00	243.14
524.00	243.34
525.00	251.99
526.00	250.62
527.00	243.93
528.00	243.15
529.00	238.75
530.00	240.28
531.00	247.80
532.00	249.90
533.00	252.47
534.00	259.21
535.00	263.05
536.00	252.55
537.00	253.62
538.00	251.40
539.00	253.91
540.00	249.29
541.00	247.43
542.00	247.58
543.00	249.79
544.00	256.75
545.00	261.29
546.00	263.55
547.00	263.89
548.00	249.56
549.00	278.69
550.00	274.93
551.00	259.96
552.00	251.93
553.00	248.30
554.00	247.45
555.00	263.98
556.00	269.83
557.00	258.40
558.00	243.45
559.00	241.85
560.00	260.72
561.00	248.51
562.00	243.88
563.00	236.04
564.00	242.38
565.00	256.29
566.00	246.29
567.00	256.41
568.00	253.87
569.00	248.01
570.00	249.55
571.00	249.56
572.00	236.33
573.00	239.95
574.00	249.75
575.00	233.86
576.00	233.89
577.00	238.62
578.00	237.70
579.00	237.88
580.00	238.87
581.00	228.11
582.00	228.38
583.00	233.47
584.00	236.99
585.00	227.09
586.00	237.35
587.00	235.04
588.00	249.73
589.00	255.62
590.00	239.68
591.00	243.59
592.00	239.39
593.00	239.12
594.00	240.01
595.00	228.85
596.00	223.71
597.00	230.89
598.00	230.95
599.00	236.18
600.00	237.88
601.00	240.20
602.00	245.14
603.00	317.98
604.00	295.79
605.00	261.47
606.00	248.33
607.00	230.91
608.00	224.90
609.00	227.90
610.00	237.90
611.00	250.84
612.00	243.48
613.00	232.59
614.00	228.49
615.00	232.23
616.00	235.33
617.00	253.92
618.00	238.09
619.00	241.93
620.00	228.02
621.00	244.76
622.00	228.98
623.00	223.35
624.00	233.15
625.00	242.96
626.00	239.96
627.00	228.13
628.00	234.95
629.00	238.59
630.00	235.25
631.00	240.62
632.00	228.83
633.00	221.92
634.00	223.28
635.00	224.09
636.00	223.64
637.00	223.86
638.00	223.00
639.00	221.72
640.00	233.19
641.00	239.21
642.00	250.18
643.00	229.87
644.00	226.20
645.00	224.10
646.00	229.08
647.00	229.47
648.00	226.49
649.00	229.01
650.00	218.77
651.00	221.31
652.00	218.99
653.00	220.88
654.00	225.08
655.00	219.12
656.00	303.57
657.00	285.63
658.00	243.99
659.00	223.49
660.00	220.94
661.00	219.89
662.00	211.13
663.00	214.39
664.00	238.33
665.00	228.49
666.00	223.80
667.00	220.97
668.00	228.41
669.00	223.17
670.00	219.74
671.00	214.50
672.00	219.16
673.00	215.02
674.00	215.11
675.00	244.18
676.00	248.79
677.00	224.19
678.00	215.79
679.00	214.47
680.00	215.69
681.00	214.51
682.00	219.36
683.00	214.39
684.00	219.29
685.00	218.80
686.00	213.26
687.00	227.13
688.00	227.60
689.00	229.03
690.00	212.64
691.00	215.20
692.00	218.27
693.00	220.94
694.00	229.18
695.00	227.08
696.00	248.01
697.00	351.46
698.00	254.90
699.00	228.55
700.00	216.29
701.00	219.80
702.00	214.23
703.00	243.29
704.00	234.23
705.00	222.13
706.00	220.55
707.00	302.49
708.00	244.55
709.00	224.66
710.00	212.39
711.00	216.56
712.00	212.95
713.00	208.78
714.00	214.94
715.00	222.24
716.00	220.47
717.00	210.26
718.00	210.37
719.00	209.13
720.00	209.41
721.00	219.10
722.00	214.67
723.00	218.73
724.00	216.27
725.00	225.26
726.00	211.60
727.00	224.44
728.00	236.77
729.00	220.84
730.00	216.12
731.00	215.37
732.00	213.13
733.00	212.46
734.00	209.88
735.00	213.41
736.00	225.63
737.00	232.50
738.00	263.54
739.00	330.56
740.00	249.92
741.00	223.94
742.00	216.03
743.00	211.06
744.00	220.07
745.00	217.40
746.00	206.32
747.00	210.85
748.00	215.41
749.00	215.32
750.00	260.93
751.00	532.51
752.00	450.60
753.00	292.99
754.00	228.08
755.00	207.54
756.00	205.82
757.00	208.22
758.00	211.13
759.00	211.47
760.00	212.50
761.00	214.86
762.00	212.95
763.00	239.13
764.00	805.47
765.00	455.59
766.00	295.32
767.00	220.32
768.00	209.27
769.00	205.12
770.00	208.14
771.00	209.60
772.00	217.17
773.00	338.23
774.00	254.39
775.00	225.46
776.00	210.77
777.00	217.52
778.00	267.03
779.00	235.11
780.00	219.35
781.00	207.19
782.00	202.62
783.00	206.27
784.00	207.31
785.00	209.54
786.00	211.67
787.00	209.67
788.00	207.93
789.00	213.01
790.00	217.87
791.00	210.93
792.00	214.11
793.00	207.63
794.00	208.60
795.00	299.06
796.00	307.07
797.00	237.43
798.00	224.33
799.00	209.63
800.00	209.46
801.00	291.83
802.00	395.08
803.00	298.89
804.00	238.88
805.00	220.28
806.00	214.05
807.00	205.81
808.00	211.41
809.00	213.17
810.00	216.09
811.00	387.06
812.00	1555.52
813.00	952.00
814.00	443.76
815.00	291.37
816.00	215.92
817.00	207.46
818.00	207.77
819.00	209.14
820.00	210.24
821.00	207.18
822.00	209.80
823.00	206.85
824.00	204.55
825.00	209.80
826.00	208.74
827.00	263.48
828.00	236.10
829.00	216.31
830.00	209.05
831.00	203.43
832.00	209.39
833.00	208.88
834.00	206.13
835.00	208.02
836.00	207.66
837.00	207.46
838.00	208.16
839.00	207.27
840.00	210.05
841.00	250.93
842.00	283.26
843.00	397.18
844.00	295.79
845.00	244.45
846.00	227.86
847.00	213.61
848.00	209.60
849.00	207.99
850.00	206.28
851.00	205.19
852.00	209.77
853.00	246.96
854.00	216.05
855.00	211.33
856.00	215.91
857.00	208.47
858.00	206.43
859.00	206.18
860.00	203.10
861.00	210.86
862.00	206.91
863.00	203.06
864.00	207.71
865.00	209.91
866.00	206.53
867.00	200.81
868.00	208.01
869.00	205.82
870.00	208.25
871.00	205.63
872.00	206.73
873.00	208.61
874.00	201.33
875.00	202.03
876.00	206.32
877.00	206.69
878.00	202.01
879.00	200.95
880.00	207.36
881.00	205.06
882.00	204.34
883.00	202.40
884.00	203.00
885.00	202.86
886.00	201.86
887.00	204.74
888.00	204.87
889.00	203.04
890.00	203.46
891.00	209.21
892.00	202.26
893.00	205.80
894.00	202.62
895.00	206.81
896.00	202.95
897.00	203.36
898.00	202.93
899.00	201.92
900.00	206.43
901.00	203.57
902.00	206.93
903.00	207.71
904.00	207.21
905.00	205.12
906.00	207.83
907.00	205.21
908.00	206.17
909.00	205.35
910.00	205.09
911.00	209.70
912.00	218.25
913.00	294.27
914.00	251.99
915.00	232.22
916.00	222.87
917.00	213.68
918.00	205.95
919.00	211.13
920.00	207.27
921.00	205.12
922.00	204.47
923.00	221.86
924.00	214.49
925.00	214.78
926.00	203.00
927.00	206.80
928.00	202.61
929.00	202.51
930.00	205.05
931.00	203.65
932.00	201.41
933.00	205.88
934.00	205.79
935.00	200.08
936.00	201.69
937.00	200.96
938.00	206.45
939.00	203.16
940.00	203.73
941.00	201.89
942.00	204.00
943.00	199.24
944.00	202.73
945.00	207.67
946.00	201.79
947.00	205.61
948.00	205.23
949.00	203.44
950.00	200.85
951.00	207.50
952.00	202.01
953.00	202.87
954.00	202.33
955.00	204.04
956.00	202.28
957.00	204.71
958.00	201.71
959.00	202.99
960.00	206.65
961.00	202.99
962.00	203.02
963.00	206.77
964.00	206.25
965.00	200.00
966.00	204.11
967.00	207.33
968.00	206.02
969.00	207.17
970.00	203.62
971.00	200.79
972.00	205.79
973.00	207.16
974.00	203.75
975.00	202.44
976.00	206.57
977.00	201.91
978.00	205.52
979.00	205.87
980.00	202.47
981.00	200.38
982.00	205.16
983.00	207.30
984.00	203.64
985.00	208.38
986.00	198.09
987.00	206.84
988.00	205.98
989.00	206.72
990.00	201.58
991.00	206.77
992.00	203.57
993.00	199.58
994.00	203.93
995.00	205.96
996.00	204.64
997.00	203.06
998.00	202.36
999.00	205.33
1000.00	202.39
>>>>>End Processed Spectral Data<<<<<
