SpectraSuite Data File
++++++++++++++++++++++++++++++++++++
Date: Tue Oct 18 14:30:41 CDT 2011
User: Helimak
Dark Spectrum Present: No
Reference Spectrum Present: No
Number of Sampled Component Spectra: 1
Spectrometers: USB2G37154
Integration Time (usec): 200000 (USB2G37154)
Spectra Averaged: 1 (USB2G37154)
Boxcar Smoothing: 0 (USB2G37154)
Correct for Electrical Dark: No (USB2G37154)
Strobe/Lamp Enabled: No (USB2G37154)
Correct for Detector Non-linearity: No (USB2G37154)
Correct for Stray Light: No (USB2G37154)
Number of Pixels in Processed Spectrum: 651
>>>>>Begin Processed Spectral Data<<<<<
350.00	201.94
351.00	206.70
352.00	203.92
353.00	204.77
354.00	211.15
355.00	205.39
356.00	207.24
357.00	209.98
358.00	216.74
359.00	211.75
360.00	208.80
361.00	213.78
362.00	212.25
363.00	209.06
364.00	211.91
365.00	213.42
366.00	211.22
367.00	211.78
368.00	211.97
369.00	212.35
370.00	217.09
371.00	217.82
372.00	224.75
373.00	219.47
374.00	217.86
375.00	224.55
376.00	223.83
377.00	232.68
378.00	242.76
379.00	240.70
380.00	242.09
381.00	238.69
382.00	243.77
383.00	241.58
384.00	260.54
385.00	262.31
386.00	261.96
387.00	261.45
388.00	248.09
389.00	242.88
390.00	244.63
391.00	249.30
392.00	265.53
393.00	269.02
394.00	277.69
395.00	248.69
396.00	255.94
397.00	250.22
398.00	244.27
399.00	264.40
400.00	315.71
401.00	352.35
402.00	321.03
403.00	349.69
404.00	366.23
405.00	315.08
406.00	373.11
407.00	392.71
408.00	312.57
409.00	318.84
410.00	331.99
411.00	277.87
412.00	308.06
413.00	297.30
414.00	271.32
415.00	390.76
416.00	341.33
417.00	303.08
418.00	358.05
419.00	582.39
420.00	441.42
421.00	317.36
422.00	415.40
423.00	355.27
424.00	314.89
425.00	504.09
426.00	666.32
427.00	673.93
428.00	457.89
429.00	409.79
430.00	381.90
431.00	328.34
432.00	448.78
433.00	611.79
434.00	1875.42
435.00	1027.87
436.00	601.14
437.00	524.02
438.00	400.56
439.00	577.89
440.00	493.75
441.00	469.22
442.00	1145.91
443.00	646.16
444.00	373.31
445.00	292.49
446.00	284.57
447.00	355.27
448.00	349.13
449.00	301.26
450.00	330.60
451.00	332.36
452.00	326.61
453.00	371.31
454.00	550.91
455.00	414.57
456.00	370.64
457.00	498.12
458.00	796.64
459.00	595.74
460.00	1110.01
461.00	736.53
462.00	416.30
463.00	341.89
464.00	311.93
465.00	481.57
466.00	372.19
467.00	318.92
468.00	298.09
469.00	314.28
470.00	313.06
471.00	324.17
472.00	550.83
473.00	623.78
474.00	392.95
475.00	358.17
476.00	612.41
477.00	373.76
478.00	299.28
479.00	345.94
480.00	1336.73
481.00	611.35
482.00	360.55
483.00	303.38
484.00	514.54
485.00	518.60
486.00	527.00
487.00	1727.16
488.00	1330.29
489.00	625.71
490.00	403.00
491.00	354.08
492.00	353.27
493.00	411.35
494.00	333.30
495.00	331.31
496.00	545.35
497.00	398.65
498.00	314.93
499.00	307.76
500.00	490.30
501.00	613.98
502.00	396.12
503.00	324.40
504.00	373.96
505.00	430.36
506.00	478.72
507.00	418.82
508.00	395.11
509.00	362.59
510.00	333.55
511.00	324.05
512.00	320.64
513.00	352.49
514.00	542.97
515.00	394.18
516.00	360.05
517.00	316.14
518.00	367.93
519.00	334.74
520.00	297.86
521.00	314.74
522.00	321.61
523.00	295.53
524.00	300.95
525.00	319.89
526.00	308.89
527.00	287.29
528.00	295.16
529.00	288.98
530.00	283.35
531.00	294.28
532.00	303.74
533.00	319.02
534.00	323.62
535.00	338.79
536.00	324.95
537.00	328.07
538.00	316.47
539.00	317.15
540.00	318.94
541.00	308.34
542.00	322.40
543.00	316.93
544.00	324.98
545.00	361.87
546.00	340.66
547.00	353.20
548.00	328.88
549.00	409.73
550.00	391.37
551.00	350.91
552.00	334.34
553.00	315.59
554.00	307.09
555.00	353.75
556.00	377.06
557.00	341.81
558.00	301.23
559.00	301.01
560.00	348.38
561.00	309.94
562.00	292.58
563.00	277.75
564.00	295.90
565.00	331.18
566.00	307.61
567.00	309.33
568.00	313.39
569.00	317.35
570.00	310.47
571.00	298.97
572.00	280.33
573.00	289.22
574.00	310.44
575.00	276.26
576.00	273.91
577.00	294.52
578.00	284.88
579.00	280.19
580.00	282.19
581.00	266.61
582.00	260.97
583.00	284.23
584.00	278.54
585.00	265.15
586.00	274.21
587.00	281.19
588.00	321.29
589.00	345.06
590.00	291.71
591.00	298.41
592.00	281.74
593.00	300.62
594.00	282.02
595.00	265.76
596.00	253.22
597.00	264.35
598.00	274.73
599.00	286.41
600.00	293.21
601.00	294.26
602.00	299.86
603.00	535.78
604.00	460.36
605.00	362.07
606.00	326.71
607.00	270.81
608.00	255.46
609.00	257.74
610.00	296.66
611.00	397.44
612.00	362.43
613.00	285.30
614.00	276.62
615.00	283.54
616.00	281.35
617.00	394.80
618.00	308.03
619.00	263.77
620.00	272.08
621.00	297.71
622.00	280.64
623.00	255.59
624.00	297.83
625.00	301.07
626.00	282.00
627.00	270.12
628.00	275.75
629.00	273.66
630.00	296.30
631.00	289.06
632.00	260.68
633.00	248.35
634.00	248.61
635.00	246.07
636.00	247.88
637.00	257.71
638.00	254.62
639.00	262.24
640.00	266.50
641.00	292.89
642.00	333.34
643.00	273.78
644.00	262.26
645.00	254.59
646.00	258.91
647.00	254.02
648.00	263.71
649.00	256.27
650.00	246.59
651.00	237.92
652.00	239.89
653.00	242.24
654.00	249.22
655.00	247.93
656.00	523.63
657.00	458.84
658.00	321.96
659.00	254.23
660.00	245.37
661.00	247.17
662.00	226.90
663.00	228.84
664.00	325.43
665.00	322.43
666.00	256.11
667.00	249.48
668.00	277.64
669.00	285.53
670.00	242.91
671.00	233.64
672.00	237.44
673.00	237.97
674.00	230.54
675.00	328.55
676.00	341.93
677.00	262.48
678.00	233.04
679.00	231.93
680.00	224.38
681.00	224.32
682.00	228.78
683.00	226.19
684.00	231.91
685.00	230.74
686.00	234.92
687.00	297.14
688.00	272.53
689.00	274.17
690.00	238.52
691.00	229.00
692.00	233.82
693.00	236.05
694.00	284.28
695.00	262.78
696.00	341.03
697.00	647.68
698.00	347.60
699.00	266.69
700.00	238.57
701.00	238.89
702.00	230.83
703.00	310.98
704.00	287.48
705.00	248.99
706.00	236.56
707.00	504.08
708.00	340.81
709.00	255.55
710.00	231.35
711.00	232.80
712.00	232.13
713.00	231.26
714.00	225.63
715.00	263.49
716.00	243.00
717.00	227.08
718.00	220.35
719.00	214.29
720.00	216.80
721.00	226.40
722.00	234.11
723.00	228.77
724.00	230.19
725.00	248.06
726.00	228.35
727.00	257.90
728.00	299.29
729.00	244.12
730.00	228.86
731.00	224.99
732.00	226.80
733.00	225.87
734.00	218.99
735.00	237.55
736.00	262.43
737.00	290.41
738.00	417.01
739.00	621.81
740.00	346.94
741.00	261.01
742.00	231.04
743.00	236.01
744.00	249.15
745.00	240.35
746.00	214.62
747.00	214.32
748.00	220.94
749.00	229.09
750.00	386.37
751.00	1329.35
752.00	999.00
753.00	483.22
754.00	282.08
755.00	226.43
756.00	218.66
757.00	221.35
758.00	226.68
759.00	219.33
760.00	223.11
761.00	219.38
762.00	223.18
763.00	311.85
764.00	2220.91
765.00	1026.59
766.00	478.15
767.00	261.60
768.00	223.60
769.00	217.37
770.00	212.74
771.00	215.04
772.00	243.24
773.00	625.59
774.00	366.20
775.00	270.21
776.00	221.65
777.00	239.85
778.00	462.04
779.00	304.06
780.00	245.04
781.00	214.40
782.00	211.92
783.00	210.70
784.00	211.62
785.00	215.88
786.00	218.78
787.00	218.29
788.00	215.93
789.00	227.95
790.00	234.09
791.00	225.35
792.00	221.95
793.00	222.59
794.00	221.08
795.00	498.68
796.00	522.11
797.00	314.43
798.00	255.07
799.00	218.00
800.00	221.38
801.00	475.07
802.00	852.59
803.00	496.23
804.00	315.39
805.00	237.89
806.00	224.83
807.00	218.99
808.00	217.89
809.00	221.70
810.00	244.90
811.00	766.26
812.00	3925.88
813.00	2424.48
814.00	918.20
815.00	456.74
816.00	237.56
817.00	223.20
818.00	218.65
819.00	215.93
820.00	208.13
821.00	209.92
822.00	211.68
823.00	210.75
824.00	210.25
825.00	220.18
826.00	215.61
827.00	391.93
828.00	303.01
829.00	240.73
830.00	226.02
831.00	212.01
832.00	208.82
833.00	209.58
834.00	208.32
835.00	215.79
836.00	207.79
837.00	208.25
838.00	205.36
839.00	214.82
840.00	211.81
841.00	356.12
842.00	437.47
843.00	823.96
844.00	513.61
845.00	340.74
846.00	276.16
847.00	219.76
848.00	207.66
849.00	203.25
850.00	210.30
851.00	209.26
852.00	229.95
853.00	350.22
854.00	249.68
855.00	227.61
856.00	224.77
857.00	209.50
858.00	210.73
859.00	205.25
860.00	205.33
861.00	216.51
862.00	209.10
863.00	213.24
864.00	213.19
865.00	208.42
866.00	207.58
867.00	218.54
868.00	225.04
869.00	214.90
870.00	207.03
871.00	206.59
872.00	207.86
873.00	207.55
874.00	205.39
875.00	206.34
876.00	209.04
877.00	208.98
878.00	205.24
879.00	207.94
880.00	206.07
881.00	206.98
882.00	202.62
883.00	206.00
884.00	204.00
885.00	205.58
886.00	209.62
887.00	210.39
888.00	206.69
889.00	205.61
890.00	206.93
891.00	208.19
892.00	208.82
893.00	206.81
894.00	200.61
895.00	207.72
896.00	203.40
897.00	204.84
898.00	200.63
899.00	202.93
900.00	204.82
901.00	208.41
902.00	202.92
903.00	210.91
904.00	203.12
905.00	205.02
906.00	206.89
907.00	205.92
908.00	206.57
909.00	204.96
910.00	206.75
911.00	208.20
912.00	241.92
913.00	480.88
914.00	359.81
915.00	297.04
916.00	255.41
917.00	225.76
918.00	206.10
919.00	204.69
920.00	207.11
921.00	209.48
922.00	206.62
923.00	247.51
924.00	235.79
925.00	226.32
926.00	213.01
927.00	213.89
928.00	204.21
929.00	201.24
930.00	206.30
931.00	205.02
932.00	203.21
933.00	204.55
934.00	202.19
935.00	200.52
936.00	204.74
937.00	202.94
938.00	204.64
939.00	203.07
940.00	205.61
941.00	207.00
942.00	208.00
943.00	199.99
944.00	201.19
945.00	210.62
946.00	205.90
947.00	204.11
948.00	203.66
949.00	204.61
950.00	207.03
951.00	202.75
952.00	201.98
953.00	207.26
954.00	203.69
955.00	206.13
956.00	204.52
957.00	208.90
958.00	201.10
959.00	207.92
960.00	202.22
961.00	200.90
962.00	206.30
963.00	203.31
964.00	206.29
965.00	201.73
966.00	206.23
967.00	215.70
968.00	213.02
969.00	214.32
970.00	211.75
971.00	205.20
972.00	201.91
973.00	206.86
974.00	207.25
975.00	202.27
976.00	205.83
977.00	205.45
978.00	201.88
979.00	205.08
980.00	201.44
981.00	204.56
982.00	203.38
983.00	206.53
984.00	206.02
985.00	205.78
986.00	203.26
987.00	208.03
988.00	204.59
989.00	203.07
990.00	203.58
991.00	208.29
992.00	203.18
993.00	205.95
994.00	204.20
995.00	203.86
996.00	208.08
997.00	204.93
998.00	201.69
999.00	204.87
1000.00	207.15
>>>>>End Processed Spectral Data<<<<<
