SpectraSuite Data File
++++++++++++++++++++++++++++++++++++
Date: Tue Oct 18 14:30:40 CDT 2011
User: Helimak
Dark Spectrum Present: No
Reference Spectrum Present: No
Number of Sampled Component Spectra: 1
Spectrometers: USB2G37154
Integration Time (usec): 200000 (USB2G37154)
Spectra Averaged: 1 (USB2G37154)
Boxcar Smoothing: 0 (USB2G37154)
Correct for Electrical Dark: No (USB2G37154)
Strobe/Lamp Enabled: No (USB2G37154)
Correct for Detector Non-linearity: No (USB2G37154)
Correct for Stray Light: No (USB2G37154)
Number of Pixels in Processed Spectrum: 651
>>>>>Begin Processed Spectral Data<<<<<
350.00	202.94
351.00	204.27
352.00	202.23
353.00	204.03
354.00	207.61
355.00	209.93
356.00	210.76
357.00	207.76
358.00	213.95
359.00	208.35
360.00	212.20
361.00	207.75
362.00	211.34
363.00	211.48
364.00	213.72
365.00	212.97
366.00	213.32
367.00	207.85
368.00	209.26
369.00	215.60
370.00	215.03
371.00	215.96
372.00	226.67
373.00	218.95
374.00	216.38
375.00	225.31
376.00	229.92
377.00	234.06
378.00	239.57
379.00	237.84
380.00	240.21
381.00	241.84
382.00	244.58
383.00	244.56
384.00	267.52
385.00	256.24
386.00	259.90
387.00	263.91
388.00	249.06
389.00	244.34
390.00	237.22
391.00	247.63
392.00	265.37
393.00	270.17
394.00	281.63
395.00	253.52
396.00	255.93
397.00	249.65
398.00	250.63
399.00	262.39
400.00	306.26
401.00	346.51
402.00	320.18
403.00	352.72
404.00	367.47
405.00	315.21
406.00	374.12
407.00	398.60
408.00	314.45
409.00	316.52
410.00	331.11
411.00	278.15
412.00	303.87
413.00	299.56
414.00	275.09
415.00	382.84
416.00	339.68
417.00	311.51
418.00	359.55
419.00	582.01
420.00	445.32
421.00	323.90
422.00	411.63
423.00	357.09
424.00	314.14
425.00	508.13
426.00	673.82
427.00	677.07
428.00	452.10
429.00	410.64
430.00	377.26
431.00	331.81
432.00	450.43
433.00	606.74
434.00	1857.69
435.00	1036.87
436.00	596.51
437.00	522.33
438.00	405.41
439.00	577.49
440.00	488.74
441.00	472.72
442.00	1143.81
443.00	654.06
444.00	366.31
445.00	289.43
446.00	292.45
447.00	358.57
448.00	342.64
449.00	300.14
450.00	330.99
451.00	324.86
452.00	323.95
453.00	368.79
454.00	551.83
455.00	408.90
456.00	377.34
457.00	496.46
458.00	797.18
459.00	586.44
460.00	1116.44
461.00	719.18
462.00	410.86
463.00	334.84
464.00	311.04
465.00	479.77
466.00	372.85
467.00	312.68
468.00	302.26
469.00	311.33
470.00	313.55
471.00	322.17
472.00	542.87
473.00	620.35
474.00	387.33
475.00	355.21
476.00	598.36
477.00	375.50
478.00	300.98
479.00	343.22
480.00	1318.96
481.00	608.78
482.00	363.07
483.00	303.08
484.00	511.75
485.00	518.49
486.00	528.57
487.00	1728.83
488.00	1336.51
489.00	627.66
490.00	406.17
491.00	349.94
492.00	354.25
493.00	408.04
494.00	331.36
495.00	331.75
496.00	551.33
497.00	394.24
498.00	320.61
499.00	310.12
500.00	486.16
501.00	608.84
502.00	392.11
503.00	331.54
504.00	366.47
505.00	422.61
506.00	471.14
507.00	420.65
508.00	395.87
509.00	362.23
510.00	332.11
511.00	318.01
512.00	316.04
513.00	352.50
514.00	545.04
515.00	382.69
516.00	348.52
517.00	320.56
518.00	366.34
519.00	333.49
520.00	295.65
521.00	321.27
522.00	322.50
523.00	294.07
524.00	308.80
525.00	329.75
526.00	312.91
527.00	295.37
528.00	299.85
529.00	290.20
530.00	292.33
531.00	294.05
532.00	301.45
533.00	311.35
534.00	320.91
535.00	331.30
536.00	323.37
537.00	324.58
538.00	316.06
539.00	316.84
540.00	325.69
541.00	313.82
542.00	321.56
543.00	316.41
544.00	322.83
545.00	352.86
546.00	337.82
547.00	351.94
548.00	328.04
549.00	414.06
550.00	392.30
551.00	353.78
552.00	321.53
553.00	317.04
554.00	309.87
555.00	355.24
556.00	378.91
557.00	343.44
558.00	300.21
559.00	301.33
560.00	341.16
561.00	311.84
562.00	294.83
563.00	276.52
564.00	293.50
565.00	330.79
566.00	314.24
567.00	314.75
568.00	316.11
569.00	324.04
570.00	307.67
571.00	302.73
572.00	275.94
573.00	287.91
574.00	307.45
575.00	282.51
576.00	275.21
577.00	289.43
578.00	287.10
579.00	279.45
580.00	279.22
581.00	269.97
582.00	264.26
583.00	286.57
584.00	275.72
585.00	268.63
586.00	274.30
587.00	279.19
588.00	320.48
589.00	348.39
590.00	294.37
591.00	296.01
592.00	282.02
593.00	298.19
594.00	283.04
595.00	264.65
596.00	258.27
597.00	267.99
598.00	272.45
599.00	285.05
600.00	284.89
601.00	295.03
602.00	302.72
603.00	538.91
604.00	459.16
605.00	364.79
606.00	329.57
607.00	272.42
608.00	249.25
609.00	256.96
610.00	300.71
611.00	394.19
612.00	358.83
613.00	286.80
614.00	280.05
615.00	287.71
616.00	281.46
617.00	392.77
618.00	305.71
619.00	263.60
620.00	268.85
621.00	296.70
622.00	277.71
623.00	251.59
624.00	296.76
625.00	299.93
626.00	283.24
627.00	270.39
628.00	277.10
629.00	277.23
630.00	295.85
631.00	291.83
632.00	258.53
633.00	254.19
634.00	244.54
635.00	248.96
636.00	252.65
637.00	258.79
638.00	255.71
639.00	255.26
640.00	269.14
641.00	283.73
642.00	328.94
643.00	271.74
644.00	255.81
645.00	253.12
646.00	258.93
647.00	258.54
648.00	260.39
649.00	253.81
650.00	243.50
651.00	240.59
652.00	244.02
653.00	243.25
654.00	259.91
655.00	252.77
656.00	514.93
657.00	467.89
658.00	326.98
659.00	261.48
660.00	245.71
661.00	241.34
662.00	231.78
663.00	228.85
664.00	332.65
665.00	326.15
666.00	263.22
667.00	251.60
668.00	278.12
669.00	283.15
670.00	248.11
671.00	234.75
672.00	234.17
673.00	237.98
674.00	231.37
675.00	326.50
676.00	343.70
677.00	258.16
678.00	238.13
679.00	227.11
680.00	228.46
681.00	228.43
682.00	227.81
683.00	225.66
684.00	229.27
685.00	229.60
686.00	232.07
687.00	296.00
688.00	281.71
689.00	268.45
690.00	235.93
691.00	232.64
692.00	228.81
693.00	234.75
694.00	284.62
695.00	264.92
696.00	333.03
697.00	661.76
698.00	343.72
699.00	261.05
700.00	240.64
701.00	234.54
702.00	234.71
703.00	311.05
704.00	293.80
705.00	251.19
706.00	238.35
707.00	504.38
708.00	331.80
709.00	251.37
710.00	222.60
711.00	232.71
712.00	227.68
713.00	227.85
714.00	226.44
715.00	263.45
716.00	245.94
717.00	225.06
718.00	215.78
719.00	217.02
720.00	220.02
721.00	235.20
722.00	229.60
723.00	230.04
724.00	230.05
725.00	245.43
726.00	226.76
727.00	255.23
728.00	300.80
729.00	239.69
730.00	221.90
731.00	223.16
732.00	226.60
733.00	219.61
734.00	219.79
735.00	232.06
736.00	257.11
737.00	299.14
738.00	410.81
739.00	619.40
740.00	348.56
741.00	252.42
742.00	237.04
743.00	230.04
744.00	244.40
745.00	240.09
746.00	218.49
747.00	219.36
748.00	218.27
749.00	230.94
750.00	382.71
751.00	1333.53
752.00	965.62
753.00	482.47
754.00	285.16
755.00	224.00
756.00	213.10
757.00	219.04
758.00	222.81
759.00	225.50
760.00	221.46
761.00	219.67
762.00	225.77
763.00	305.92
764.00	2235.76
765.00	1026.80
766.00	485.74
767.00	261.99
768.00	221.01
769.00	216.92
770.00	212.51
771.00	215.63
772.00	247.40
773.00	621.00
774.00	365.79
775.00	275.59
776.00	219.80
777.00	244.30
778.00	468.03
779.00	312.08
780.00	244.21
781.00	217.19
782.00	209.91
783.00	209.95
784.00	217.83
785.00	216.09
786.00	220.07
787.00	224.12
788.00	223.35
789.00	228.93
790.00	237.68
791.00	223.08
792.00	222.38
793.00	217.17
794.00	221.44
795.00	508.93
796.00	522.29
797.00	317.40
798.00	259.32
799.00	224.64
800.00	220.24
801.00	484.31
802.00	847.27
803.00	496.81
804.00	309.97
805.00	239.16
806.00	226.29
807.00	215.96
808.00	220.47
809.00	224.48
810.00	255.20
811.00	775.88
812.00	3928.28
813.00	2408.89
814.00	910.38
815.00	459.81
816.00	240.27
817.00	221.05
818.00	217.49
819.00	210.64
820.00	210.63
821.00	207.86
822.00	213.76
823.00	214.68
824.00	210.72
825.00	221.66
826.00	217.96
827.00	395.05
828.00	311.09
829.00	243.72
830.00	222.61
831.00	213.61
832.00	207.67
833.00	208.53
834.00	205.18
835.00	209.87
836.00	209.35
837.00	210.08
838.00	210.42
839.00	210.86
840.00	219.29
841.00	355.91
842.00	437.22
843.00	818.83
844.00	504.78
845.00	334.01
846.00	279.28
847.00	219.23
848.00	207.98
849.00	207.93
850.00	209.69
851.00	206.09
852.00	226.99
853.00	349.09
854.00	250.08
855.00	227.47
856.00	224.89
857.00	210.18
858.00	211.12
859.00	200.20
860.00	207.26
861.00	218.52
862.00	212.95
863.00	207.43
864.00	213.10
865.00	210.20
866.00	208.72
867.00	218.86
868.00	221.04
869.00	211.05
870.00	210.09
871.00	209.83
872.00	206.83
873.00	209.87
874.00	206.16
875.00	208.82
876.00	205.28
877.00	211.46
878.00	205.68
879.00	205.69
880.00	206.94
881.00	206.57
882.00	206.00
883.00	206.14
884.00	204.00
885.00	203.27
886.00	204.07
887.00	206.87
888.00	205.79
889.00	200.87
890.00	204.75
891.00	208.11
892.00	204.31
893.00	207.45
894.00	202.08
895.00	207.79
896.00	202.60
897.00	199.55
898.00	200.72
899.00	199.28
900.00	203.71
901.00	205.07
902.00	201.47
903.00	211.22
904.00	209.03
905.00	205.05
906.00	209.59
907.00	205.01
908.00	207.65
909.00	204.95
910.00	204.66
911.00	204.75
912.00	240.19
913.00	481.29
914.00	361.51
915.00	288.75
916.00	255.07
917.00	227.13
918.00	206.19
919.00	208.28
920.00	206.13
921.00	207.64
922.00	209.28
923.00	246.70
924.00	236.93
925.00	223.71
926.00	214.98
927.00	212.62
928.00	206.51
929.00	209.02
930.00	204.79
931.00	203.58
932.00	206.93
933.00	205.15
934.00	206.22
935.00	201.80
936.00	205.64
937.00	200.98
938.00	204.40
939.00	205.93
940.00	205.02
941.00	205.46
942.00	208.05
943.00	205.91
944.00	202.88
945.00	210.74
946.00	205.30
947.00	201.09
948.00	201.89
949.00	202.48
950.00	203.84
951.00	205.21
952.00	200.08
953.00	204.80
954.00	204.04
955.00	205.36
956.00	203.11
957.00	204.17
958.00	205.52
959.00	212.96
960.00	200.18
961.00	204.98
962.00	204.06
963.00	204.30
964.00	204.00
965.00	205.05
966.00	209.63
967.00	216.93
968.00	215.03
969.00	213.09
970.00	203.97
971.00	209.90
972.00	203.53
973.00	206.01
974.00	208.58
975.00	206.12
976.00	206.09
977.00	202.86
978.00	202.36
979.00	204.93
980.00	199.85
981.00	203.81
982.00	203.11
983.00	203.77
984.00	202.64
985.00	203.02
986.00	207.51
987.00	200.24
988.00	203.51
989.00	205.10
990.00	203.24
991.00	202.21
992.00	201.94
993.00	205.27
994.00	202.71
995.00	201.68
996.00	204.41
997.00	205.90
998.00	205.33
999.00	204.11
1000.00	200.23
>>>>>End Processed Spectral Data<<<<<
