SpectraSuite Data File
++++++++++++++++++++++++++++++++++++
Date: Tue Oct 18 14:28:38 CDT 2011
User: Helimak
Dark Spectrum Present: No
Reference Spectrum Present: No
Number of Sampled Component Spectra: 1
Spectrometers: USB2G37154
Integration Time (usec): 200000 (USB2G37154)
Spectra Averaged: 1 (USB2G37154)
Boxcar Smoothing: 0 (USB2G37154)
Correct for Electrical Dark: No (USB2G37154)
Strobe/Lamp Enabled: No (USB2G37154)
Correct for Detector Non-linearity: No (USB2G37154)
Correct for Stray Light: No (USB2G37154)
Number of Pixels in Processed Spectrum: 651
>>>>>Begin Processed Spectral Data<<<<<
350.00	203.37
351.00	203.59
352.00	207.09
353.00	202.10
354.00	204.18
355.00	207.02
356.00	204.80
357.00	202.90
358.00	210.89
359.00	208.95
360.00	206.29
361.00	210.81
362.00	212.56
363.00	207.53
364.00	211.67
365.00	208.72
366.00	208.84
367.00	209.98
368.00	209.65
369.00	206.56
370.00	199.99
371.00	211.09
372.00	214.94
373.00	216.92
374.00	210.64
375.00	218.64
376.00	215.82
377.00	221.41
378.00	227.66
379.00	226.67
380.00	227.38
381.00	227.68
382.00	232.24
383.00	231.66
384.00	238.26
385.00	240.07
386.00	244.02
387.00	245.15
388.00	231.42
389.00	227.63
390.00	229.83
391.00	232.15
392.00	241.65
393.00	235.14
394.00	245.07
395.00	232.78
396.00	237.96
397.00	232.45
398.00	233.91
399.00	243.30
400.00	263.23
401.00	287.28
402.00	279.24
403.00	296.31
404.00	302.88
405.00	277.98
406.00	298.04
407.00	314.14
408.00	271.20
409.00	267.47
410.00	277.36
411.00	252.68
412.00	267.09
413.00	257.91
414.00	251.87
415.00	318.20
416.00	291.81
417.00	272.52
418.00	303.37
419.00	418.68
420.00	343.78
421.00	270.19
422.00	313.06
423.00	292.09
424.00	275.83
425.00	377.52
426.00	470.75
427.00	456.84
428.00	348.25
429.00	337.90
430.00	324.77
431.00	287.14
432.00	353.68
433.00	432.05
434.00	1018.12
435.00	626.03
436.00	407.69
437.00	371.48
438.00	311.46
439.00	396.82
440.00	358.79
441.00	353.24
442.00	654.68
443.00	437.94
444.00	297.07
445.00	258.86
446.00	256.40
447.00	289.67
448.00	283.08
449.00	267.95
450.00	285.10
451.00	286.35
452.00	281.88
453.00	306.84
454.00	396.72
455.00	335.79
456.00	318.18
457.00	375.03
458.00	502.61
459.00	417.45
460.00	635.16
461.00	466.28
462.00	329.66
463.00	289.60
464.00	279.91
465.00	360.20
466.00	314.01
467.00	275.37
468.00	276.05
469.00	280.20
470.00	279.14
471.00	280.93
472.00	393.70
473.00	432.50
474.00	321.69
475.00	304.34
476.00	410.24
477.00	309.40
478.00	271.93
479.00	297.83
480.00	761.53
481.00	425.91
482.00	304.14
483.00	281.55
484.00	378.53
485.00	404.19
486.00	412.55
487.00	955.79
488.00	783.47
489.00	443.21
490.00	334.94
491.00	315.45
492.00	314.64
493.00	337.25
494.00	295.17
495.00	294.74
496.00	399.16
497.00	324.88
498.00	297.09
499.00	284.23
500.00	372.40
501.00	418.48
502.00	329.04
503.00	294.37
504.00	317.98
505.00	361.59
506.00	378.81
507.00	358.19
508.00	346.91
509.00	319.18
510.00	302.71
511.00	293.84
512.00	295.01
513.00	309.21
514.00	399.77
515.00	329.31
516.00	309.77
517.00	289.57
518.00	313.78
519.00	297.86
520.00	278.22
521.00	277.18
522.00	291.94
523.00	274.18
524.00	281.14
525.00	294.02
526.00	288.78
527.00	278.52
528.00	277.92
529.00	271.98
530.00	272.25
531.00	277.29
532.00	290.15
533.00	300.75
534.00	295.16
535.00	313.20
536.00	306.14
537.00	300.95
538.00	294.20
539.00	290.47
540.00	286.76
541.00	292.05
542.00	296.99
543.00	292.79
544.00	302.68
545.00	319.84
546.00	313.44
547.00	324.23
548.00	301.05
549.00	351.02
550.00	338.34
551.00	320.95
552.00	304.05
553.00	299.19
554.00	286.98
555.00	314.23
556.00	325.67
557.00	308.48
558.00	274.84
559.00	274.50
560.00	300.31
561.00	287.09
562.00	274.51
563.00	263.60
564.00	279.06
565.00	299.51
566.00	282.67
567.00	287.67
568.00	295.99
569.00	295.28
570.00	283.75
571.00	283.80
572.00	266.69
573.00	271.00
574.00	288.39
575.00	259.57
576.00	265.32
577.00	272.58
578.00	270.73
579.00	267.04
580.00	268.20
581.00	260.77
582.00	251.14
583.00	262.90
584.00	251.69
585.00	253.12
586.00	266.13
587.00	265.03
588.00	286.47
589.00	305.24
590.00	277.07
591.00	282.44
592.00	265.47
593.00	268.25
594.00	257.03
595.00	247.02
596.00	247.53
597.00	252.17
598.00	256.02
599.00	265.38
600.00	269.57
601.00	274.12
602.00	287.68
603.00	426.57
604.00	377.43
605.00	320.59
606.00	296.51
607.00	260.59
608.00	250.64
609.00	245.94
610.00	269.48
611.00	307.90
612.00	302.04
613.00	259.56
614.00	260.87
615.00	259.73
616.00	261.30
617.00	323.92
618.00	270.55
619.00	259.78
620.00	248.96
621.00	269.94
622.00	254.01
623.00	240.93
624.00	268.96
625.00	267.39
626.00	265.18
627.00	258.70
628.00	257.65
629.00	260.12
630.00	269.29
631.00	265.58
632.00	247.64
633.00	243.37
634.00	233.42
635.00	242.97
636.00	242.69
637.00	246.79
638.00	253.64
639.00	249.93
640.00	254.52
641.00	270.08
642.00	297.62
643.00	257.76
644.00	256.13
645.00	242.29
646.00	253.93
647.00	250.70
648.00	251.63
649.00	242.14
650.00	236.70
651.00	234.76
652.00	235.33
653.00	236.14
654.00	248.55
655.00	241.74
656.00	420.64
657.00	386.15
658.00	286.98
659.00	246.01
660.00	233.93
661.00	234.91
662.00	223.03
663.00	225.26
664.00	274.17
665.00	269.93
666.00	239.99
667.00	232.88
668.00	251.20
669.00	253.93
670.00	233.43
671.00	226.81
672.00	231.50
673.00	231.03
674.00	228.35
675.00	278.21
676.00	291.16
677.00	243.78
678.00	227.50
679.00	223.21
680.00	221.45
681.00	223.91
682.00	226.68
683.00	220.13
684.00	229.20
685.00	224.36
686.00	229.69
687.00	261.88
688.00	254.64
689.00	249.48
690.00	227.68
691.00	223.83
692.00	225.76
693.00	229.91
694.00	259.43
695.00	244.92
696.00	294.02
697.00	495.16
698.00	307.48
699.00	249.08
700.00	233.76
701.00	230.25
702.00	227.72
703.00	278.77
704.00	263.05
705.00	236.48
706.00	229.47
707.00	399.15
708.00	290.57
709.00	238.56
710.00	223.67
711.00	232.75
712.00	225.56
713.00	220.54
714.00	219.44
715.00	246.89
716.00	236.59
717.00	221.62
718.00	218.53
719.00	211.09
720.00	218.26
721.00	224.16
722.00	221.07
723.00	229.11
724.00	224.61
725.00	242.65
726.00	217.76
727.00	241.73
728.00	267.51
729.00	235.58
730.00	222.50
731.00	222.24
732.00	221.91
733.00	215.45
734.00	222.23
735.00	229.28
736.00	247.53
737.00	260.76
738.00	339.73
739.00	460.99
740.00	296.61
741.00	240.38
742.00	224.00
743.00	222.03
744.00	228.98
745.00	227.56
746.00	211.44
747.00	213.41
748.00	217.63
749.00	222.05
750.00	320.78
751.00	903.29
752.00	699.21
753.00	378.88
754.00	254.26
755.00	215.94
756.00	218.37
757.00	213.44
758.00	216.79
759.00	219.21
760.00	219.08
761.00	219.19
762.00	219.55
763.00	269.57
764.00	1505.70
765.00	718.78
766.00	392.02
767.00	245.96
768.00	215.84
769.00	213.60
770.00	204.63
771.00	211.89
772.00	235.46
773.00	472.69
774.00	308.92
775.00	247.34
776.00	214.04
777.00	235.77
778.00	391.04
779.00	282.62
780.00	236.43
781.00	213.90
782.00	208.87
783.00	211.92
784.00	208.79
785.00	212.63
786.00	215.55
787.00	215.92
788.00	218.71
789.00	221.96
790.00	226.93
791.00	221.94
792.00	224.47
793.00	215.60
794.00	216.77
795.00	400.65
796.00	410.05
797.00	275.91
798.00	243.47
799.00	215.88
800.00	212.53
801.00	379.09
802.00	611.80
803.00	393.31
804.00	272.95
805.00	231.80
806.00	221.29
807.00	210.76
808.00	216.30
809.00	225.27
810.00	236.54
811.00	581.14
812.00	2921.95
813.00	1694.47
814.00	686.15
815.00	383.09
816.00	226.60
817.00	221.23
818.00	217.35
819.00	212.69
820.00	208.81
821.00	205.12
822.00	208.02
823.00	212.40
824.00	207.33
825.00	213.02
826.00	215.84
827.00	332.97
828.00	273.03
829.00	227.75
830.00	218.06
831.00	211.62
832.00	206.05
833.00	209.51
834.00	210.14
835.00	209.45
836.00	206.27
837.00	210.37
838.00	203.89
839.00	209.86
840.00	214.76
841.00	304.82
842.00	352.61
843.00	614.19
844.00	411.19
845.00	289.95
846.00	248.75
847.00	217.32
848.00	207.29
849.00	210.40
850.00	205.09
851.00	204.49
852.00	223.40
853.00	300.31
854.00	232.38
855.00	217.28
856.00	219.23
857.00	206.20
858.00	210.81
859.00	208.97
860.00	208.73
861.00	215.54
862.00	209.55
863.00	210.29
864.00	218.00
865.00	208.21
866.00	204.48
867.00	218.06
868.00	218.04
869.00	209.42
870.00	212.89
871.00	208.48
872.00	204.96
873.00	205.19
874.00	203.99
875.00	204.89
876.00	207.87
877.00	213.21
878.00	206.73
879.00	206.69
880.00	205.82
881.00	204.33
882.00	202.83
883.00	206.51
884.00	206.99
885.00	205.83
886.00	206.31
887.00	204.85
888.00	206.90
889.00	204.38
890.00	209.37
891.00	210.17
892.00	205.81
893.00	204.11
894.00	205.45
895.00	208.67
896.00	203.47
897.00	206.78
898.00	204.46
899.00	204.12
900.00	205.23
901.00	203.19
902.00	198.85
903.00	210.13
904.00	204.06
905.00	202.14
906.00	208.52
907.00	210.37
908.00	210.44
909.00	209.61
910.00	205.39
911.00	203.57
912.00	234.14
913.00	390.97
914.00	317.30
915.00	262.13
916.00	237.51
917.00	218.95
918.00	204.14
919.00	208.42
920.00	199.90
921.00	208.11
922.00	207.62
923.00	228.81
924.00	226.29
925.00	218.74
926.00	212.02
927.00	212.75
928.00	202.63
929.00	209.81
930.00	204.62
931.00	208.37
932.00	202.28
933.00	205.23
934.00	203.10
935.00	204.87
936.00	202.74
937.00	205.87
938.00	207.02
939.00	203.87
940.00	201.74
941.00	203.83
942.00	209.99
943.00	204.42
944.00	207.12
945.00	205.49
946.00	201.68
947.00	205.99
948.00	204.38
949.00	202.60
950.00	205.03
951.00	203.55
952.00	203.03
953.00	202.62
954.00	198.32
955.00	203.64
956.00	205.42
957.00	204.33
958.00	206.67
959.00	204.88
960.00	205.89
961.00	202.46
962.00	202.08
963.00	206.59
964.00	202.35
965.00	206.11
966.00	206.29
967.00	216.18
968.00	214.96
969.00	211.16
970.00	206.66
971.00	206.97
972.00	204.55
973.00	209.75
974.00	202.42
975.00	203.97
976.00	209.36
977.00	202.77
978.00	207.33
979.00	202.85
980.00	198.66
981.00	203.90
982.00	201.04
983.00	207.60
984.00	200.88
985.00	205.11
986.00	202.97
987.00	207.50
988.00	201.38
989.00	204.23
990.00	203.62
991.00	205.42
992.00	204.88
993.00	204.95
994.00	205.61
995.00	203.81
996.00	203.33
997.00	204.23
998.00	205.89
999.00	207.57
1000.00	202.09
>>>>>End Processed Spectral Data<<<<<
