SpectraSuite Data File
++++++++++++++++++++++++++++++++++++
Date: Tue Oct 18 14:35:49 CDT 2011
User: Helimak
Dark Spectrum Present: No
Reference Spectrum Present: No
Number of Sampled Component Spectra: 1
Spectrometers: USB2G37154
Integration Time (usec): 200000 (USB2G37154)
Spectra Averaged: 1 (USB2G37154)
Boxcar Smoothing: 0 (USB2G37154)
Correct for Electrical Dark: No (USB2G37154)
Strobe/Lamp Enabled: No (USB2G37154)
Correct for Detector Non-linearity: No (USB2G37154)
Correct for Stray Light: No (USB2G37154)
Number of Pixels in Processed Spectrum: 651
>>>>>Begin Processed Spectral Data<<<<<
350.00	192.17
351.00	204.66
352.00	200.41
353.00	200.89
354.00	206.38
355.00	205.88
356.00	203.66
357.00	205.47
358.00	208.63
359.00	206.05
360.00	211.41
361.00	207.65
362.00	207.63
363.00	204.42
364.00	209.18
365.00	208.66
366.00	208.76
367.00	209.94
368.00	212.24
369.00	213.66
370.00	209.03
371.00	213.11
372.00	218.09
373.00	213.92
374.00	212.48
375.00	214.14
376.00	214.75
377.00	220.23
378.00	229.53
379.00	226.36
380.00	231.84
381.00	223.68
382.00	228.00
383.00	233.86
384.00	240.07
385.00	241.01
386.00	238.09
387.00	237.38
388.00	230.99
389.00	227.31
390.00	221.72
391.00	229.65
392.00	241.97
393.00	241.50
394.00	244.12
395.00	234.71
396.00	234.01
397.00	227.73
398.00	230.79
399.00	242.00
400.00	262.10
401.00	286.47
402.00	276.46
403.00	288.88
404.00	305.63
405.00	271.59
406.00	306.07
407.00	309.00
408.00	268.81
409.00	269.66
410.00	273.71
411.00	250.15
412.00	260.02
413.00	257.29
414.00	247.91
415.00	331.47
416.00	299.45
417.00	272.66
418.00	313.37
419.00	452.20
420.00	372.20
421.00	279.34
422.00	324.39
423.00	291.44
424.00	273.45
425.00	410.28
426.00	488.64
427.00	482.40
428.00	351.63
429.00	336.13
430.00	321.94
431.00	280.88
432.00	356.68
433.00	443.52
434.00	1072.41
435.00	628.69
436.00	416.47
437.00	389.00
438.00	318.84
439.00	405.14
440.00	364.20
441.00	353.16
442.00	697.13
443.00	446.24
444.00	306.18
445.00	259.14
446.00	247.70
447.00	296.77
448.00	285.14
449.00	269.12
450.00	289.79
451.00	288.52
452.00	286.66
453.00	312.73
454.00	405.91
455.00	326.98
456.00	318.20
457.00	374.16
458.00	536.14
459.00	428.41
460.00	685.45
461.00	493.36
462.00	330.68
463.00	290.39
464.00	271.58
465.00	369.59
466.00	312.32
467.00	271.68
468.00	270.01
469.00	276.42
470.00	276.30
471.00	277.96
472.00	399.03
473.00	432.09
474.00	315.00
475.00	295.65
476.00	429.17
477.00	311.31
478.00	269.00
479.00	284.57
480.00	794.04
481.00	419.69
482.00	309.84
483.00	275.73
484.00	378.51
485.00	397.06
486.00	412.74
487.00	1030.85
488.00	814.96
489.00	449.59
490.00	329.73
491.00	304.37
492.00	298.91
493.00	331.41
494.00	284.56
495.00	285.46
496.00	404.08
497.00	320.68
498.00	285.55
499.00	276.21
500.00	375.43
501.00	428.00
502.00	327.05
503.00	292.35
504.00	313.88
505.00	352.94
506.00	377.88
507.00	346.11
508.00	332.25
509.00	312.83
510.00	288.81
511.00	290.09
512.00	290.16
513.00	299.37
514.00	404.54
515.00	326.99
516.00	313.46
517.00	291.88
518.00	319.87
519.00	303.05
520.00	273.05
521.00	279.57
522.00	291.29
523.00	273.53
524.00	272.32
525.00	293.03
526.00	278.64
527.00	270.97
528.00	264.18
529.00	266.23
530.00	267.09
531.00	269.57
532.00	278.20
533.00	285.47
534.00	293.07
535.00	293.14
536.00	289.72
537.00	286.83
538.00	278.88
539.00	276.90
540.00	279.94
541.00	275.87
542.00	290.25
543.00	281.30
544.00	291.39
545.00	303.94
546.00	297.50
547.00	311.25
548.00	287.92
549.00	358.12
550.00	339.28
551.00	307.92
552.00	297.49
553.00	287.51
554.00	279.21
555.00	316.83
556.00	333.64
557.00	306.59
558.00	275.94
559.00	271.15
560.00	300.08
561.00	280.18
562.00	271.95
563.00	259.36
564.00	268.85
565.00	294.74
566.00	278.17
567.00	282.05
568.00	284.85
569.00	280.13
570.00	281.71
571.00	275.73
572.00	257.04
573.00	264.11
574.00	273.68
575.00	255.91
576.00	257.80
577.00	267.20
578.00	260.32
579.00	260.25
580.00	258.11
581.00	251.20
582.00	243.76
583.00	255.27
584.00	254.72
585.00	247.19
586.00	254.13
587.00	251.09
588.00	283.01
589.00	312.23
590.00	270.94
591.00	269.58
592.00	262.78
593.00	272.73
594.00	258.02
595.00	245.32
596.00	240.41
597.00	248.72
598.00	255.69
599.00	263.70
600.00	262.78
601.00	271.04
602.00	273.02
603.00	448.67
604.00	388.88
605.00	316.56
606.00	291.94
607.00	253.31
608.00	238.00
609.00	240.01
610.00	268.61
611.00	324.51
612.00	302.57
613.00	260.20
614.00	254.47
615.00	257.51
616.00	259.80
617.00	329.85
618.00	271.44
619.00	257.61
620.00	252.91
621.00	273.18
622.00	256.62
623.00	235.23
624.00	265.58
625.00	268.63
626.00	255.19
627.00	249.08
628.00	250.67
629.00	255.39
630.00	269.47
631.00	264.75
632.00	241.08
633.00	235.83
634.00	233.02
635.00	231.94
636.00	234.95
637.00	245.06
638.00	244.25
639.00	239.93
640.00	251.27
641.00	258.39
642.00	290.18
643.00	252.22
644.00	240.71
645.00	235.43
646.00	242.95
647.00	241.11
648.00	242.20
649.00	235.24
650.00	234.29
651.00	232.95
652.00	230.35
653.00	228.70
654.00	238.98
655.00	237.77
656.00	405.36
657.00	378.30
658.00	278.98
659.00	242.63
660.00	236.05
661.00	233.20
662.00	218.27
663.00	221.85
664.00	270.20
665.00	271.50
666.00	239.24
667.00	235.16
668.00	250.21
669.00	255.07
670.00	231.50
671.00	224.18
672.00	225.07
673.00	226.00
674.00	221.10
675.00	285.02
676.00	300.28
677.00	245.17
678.00	229.48
679.00	218.57
680.00	215.69
681.00	224.57
682.00	224.88
683.00	222.54
684.00	225.74
685.00	224.03
686.00	219.81
687.00	267.32
688.00	254.42
689.00	247.87
690.00	228.45
691.00	224.58
692.00	221.62
693.00	221.27
694.00	258.44
695.00	246.18
696.00	288.02
697.00	515.92
698.00	307.75
699.00	248.39
700.00	224.20
701.00	225.23
702.00	225.52
703.00	276.40
704.00	268.32
705.00	236.61
706.00	224.55
707.00	413.41
708.00	295.05
709.00	240.45
710.00	222.16
711.00	227.22
712.00	221.63
713.00	218.60
714.00	214.88
715.00	243.60
716.00	231.72
717.00	225.16
718.00	212.67
719.00	213.49
720.00	215.80
721.00	222.54
722.00	222.78
723.00	220.42
724.00	226.67
725.00	237.13
726.00	221.63
727.00	239.74
728.00	271.40
729.00	235.78
730.00	219.84
731.00	218.03
732.00	220.59
733.00	215.00
734.00	213.84
735.00	222.78
736.00	245.59
737.00	266.42
738.00	345.87
739.00	494.98
740.00	299.46
741.00	237.53
742.00	224.02
743.00	226.02
744.00	235.22
745.00	223.95
746.00	210.06
747.00	215.36
748.00	213.77
749.00	225.11
750.00	313.50
751.00	977.67
752.00	747.68
753.00	403.90
754.00	257.32
755.00	218.57
756.00	214.19
757.00	213.71
758.00	218.71
759.00	225.23
760.00	218.74
761.00	217.48
762.00	223.38
763.00	267.71
764.00	1575.12
765.00	760.01
766.00	406.39
767.00	243.87
768.00	216.85
769.00	213.19
770.00	208.85
771.00	209.58
772.00	228.09
773.00	486.26
774.00	315.14
775.00	247.22
776.00	214.91
777.00	225.55
778.00	359.01
779.00	266.61
780.00	226.67
781.00	210.56
782.00	205.72
783.00	207.21
784.00	211.87
785.00	213.84
786.00	217.42
787.00	212.68
788.00	215.87
789.00	223.97
790.00	221.88
791.00	222.30
792.00	218.74
793.00	218.11
794.00	211.14
795.00	393.76
796.00	425.14
797.00	287.34
798.00	245.88
799.00	217.81
800.00	216.07
801.00	387.59
802.00	634.86
803.00	410.12
804.00	278.09
805.00	232.91
806.00	222.09
807.00	214.96
808.00	221.10
809.00	217.77
810.00	232.38
811.00	599.50
812.00	2934.95
813.00	1794.55
814.00	715.46
815.00	396.55
816.00	232.35
817.00	221.07
818.00	207.58
819.00	213.47
820.00	208.17
821.00	212.94
822.00	211.27
823.00	207.63
824.00	205.56
825.00	214.92
826.00	213.41
827.00	342.99
828.00	283.29
829.00	229.67
830.00	217.24
831.00	210.00
832.00	204.65
833.00	203.78
834.00	209.85
835.00	207.73
836.00	206.85
837.00	206.30
838.00	211.11
839.00	211.75
840.00	215.92
841.00	301.89
842.00	365.84
843.00	624.58
844.00	416.39
845.00	295.02
846.00	249.91
847.00	221.36
848.00	205.71
849.00	206.29
850.00	208.29
851.00	202.64
852.00	217.47
853.00	303.26
854.00	237.38
855.00	219.14
856.00	217.87
857.00	204.23
858.00	206.60
859.00	206.09
860.00	206.00
861.00	213.15
862.00	206.66
863.00	207.94
864.00	209.96
865.00	210.59
866.00	205.76
867.00	211.75
868.00	217.02
869.00	211.67
870.00	207.41
871.00	206.02
872.00	210.99
873.00	207.00
874.00	205.61
875.00	204.86
876.00	208.33
877.00	206.73
878.00	204.09
879.00	207.92
880.00	199.85
881.00	206.90
882.00	209.00
883.00	206.68
884.00	207.01
885.00	205.27
886.00	206.10
887.00	206.96
888.00	200.23
889.00	204.13
890.00	202.34
891.00	207.57
892.00	203.96
893.00	203.74
894.00	203.55
895.00	211.74
896.00	203.73
897.00	200.82
898.00	208.74
899.00	201.86
900.00	203.28
901.00	202.99
902.00	204.69
903.00	206.85
904.00	202.48
905.00	203.05
906.00	210.27
907.00	203.28
908.00	204.50
909.00	206.56
910.00	207.61
911.00	207.69
912.00	225.23
913.00	391.75
914.00	312.93
915.00	260.41
916.00	241.23
917.00	221.52
918.00	206.72
919.00	209.37
920.00	204.18
921.00	209.31
922.00	207.52
923.00	231.93
924.00	224.18
925.00	222.02
926.00	212.01
927.00	204.51
928.00	204.98
929.00	206.62
930.00	209.07
931.00	205.61
932.00	202.88
933.00	200.15
934.00	200.10
935.00	206.63
936.00	201.14
937.00	202.90
938.00	202.55
939.00	201.04
940.00	204.52
941.00	202.18
942.00	211.05
943.00	204.49
944.00	204.09
945.00	209.10
946.00	204.46
947.00	201.92
948.00	206.48
949.00	206.26
950.00	202.04
951.00	206.58
952.00	205.00
953.00	205.68
954.00	203.49
955.00	205.19
956.00	202.78
957.00	204.67
958.00	205.00
959.00	201.93
960.00	205.55
961.00	201.99
962.00	202.93
963.00	192.23
964.00	202.67
965.00	203.03
966.00	206.54
967.00	212.71
968.00	210.94
969.00	211.19
970.00	205.40
971.00	202.82
972.00	205.26
973.00	207.43
974.00	207.89
975.00	205.22
976.00	205.67
977.00	204.16
978.00	203.33
979.00	205.28
980.00	202.65
981.00	204.50
982.00	203.13
983.00	204.14
984.00	202.95
985.00	205.14
986.00	206.59
987.00	202.49
988.00	203.16
989.00	203.05
990.00	199.95
991.00	206.52
992.00	200.24
993.00	208.39
994.00	202.38
995.00	204.22
996.00	200.35
997.00	201.25
998.00	202.44
999.00	207.03
1000.00	204.02
>>>>>End Processed Spectral Data<<<<<
