SpectraSuite Data File
++++++++++++++++++++++++++++++++++++
Date: Tue Oct 18 14:49:24 CDT 2011
User: Helimak
Dark Spectrum Present: No
Reference Spectrum Present: No
Number of Sampled Component Spectra: 1
Spectrometers: USB2G37154
Integration Time (usec): 200000 (USB2G37154)
Spectra Averaged: 1 (USB2G37154)
Boxcar Smoothing: 0 (USB2G37154)
Correct for Electrical Dark: No (USB2G37154)
Strobe/Lamp Enabled: No (USB2G37154)
Correct for Detector Non-linearity: No (USB2G37154)
Correct for Stray Light: No (USB2G37154)
Number of Pixels in Processed Spectrum: 651
>>>>>Begin Processed Spectral Data<<<<<
350.00	204.00
351.00	204.58
352.00	206.29
353.00	202.74
354.00	202.06
355.00	205.08
356.00	205.43
357.00	206.64
358.00	209.26
359.00	205.12
360.00	207.91
361.00	203.86
362.00	206.49
363.00	203.96
364.00	205.85
365.00	206.53
366.00	204.95
367.00	207.98
368.00	208.77
369.00	208.81
370.00	205.02
371.00	209.53
372.00	210.66
373.00	210.95
374.00	212.31
375.00	216.50
376.00	212.79
377.00	212.92
378.00	222.74
379.00	218.03
380.00	221.96
381.00	222.47
382.00	226.72
383.00	221.59
384.00	224.37
385.00	233.01
386.00	227.96
387.00	232.36
388.00	225.22
389.00	221.44
390.00	225.53
391.00	224.58
392.00	228.85
393.00	231.55
394.00	238.70
395.00	224.56
396.00	220.99
397.00	222.17
398.00	222.13
399.00	235.49
400.00	250.70
401.00	267.50
402.00	257.88
403.00	260.23
404.00	268.64
405.00	251.86
406.00	258.02
407.00	272.09
408.00	247.22
409.00	254.61
410.00	254.97
411.00	239.09
412.00	236.47
413.00	240.33
414.00	239.25
415.00	292.58
416.00	273.76
417.00	258.75
418.00	280.57
419.00	380.16
420.00	325.38
421.00	256.91
422.00	276.77
423.00	258.05
424.00	257.57
425.00	345.17
426.00	395.08
427.00	390.78
428.00	310.51
429.00	296.48
430.00	290.11
431.00	269.21
432.00	311.70
433.00	364.64
434.00	707.70
435.00	465.25
436.00	336.84
437.00	321.00
438.00	279.69
439.00	330.77
440.00	300.70
441.00	298.47
442.00	479.23
443.00	346.75
444.00	269.73
445.00	244.90
446.00	245.34
447.00	263.75
448.00	259.86
449.00	256.00
450.00	273.63
451.00	273.51
452.00	271.41
453.00	284.22
454.00	338.75
455.00	298.81
456.00	292.64
457.00	327.07
458.00	409.17
459.00	348.42
460.00	492.65
461.00	384.20
462.00	296.26
463.00	261.89
464.00	258.57
465.00	320.25
466.00	281.13
467.00	260.19
468.00	263.15
469.00	267.50
470.00	265.46
471.00	269.87
472.00	328.19
473.00	347.66
474.00	291.18
475.00	273.04
476.00	348.33
477.00	276.23
478.00	257.95
479.00	268.70
480.00	544.47
481.00	350.01
482.00	280.31
483.00	262.44
484.00	321.80
485.00	345.12
486.00	364.25
487.00	687.40
488.00	581.19
489.00	362.91
490.00	301.72
491.00	283.42
492.00	284.17
493.00	294.90
494.00	275.80
495.00	275.80
496.00	336.73
497.00	293.38
498.00	272.62
499.00	268.61
500.00	321.28
501.00	354.08
502.00	292.02
503.00	265.91
504.00	296.64
505.00	323.30
506.00	329.21
507.00	320.06
508.00	312.86
509.00	293.11
510.00	272.46
511.00	270.00
512.00	274.47
513.00	274.09
514.00	338.68
515.00	299.94
516.00	290.38
517.00	271.78
518.00	296.82
519.00	280.41
520.00	259.80
521.00	266.21
522.00	272.66
523.00	261.49
524.00	269.39
525.00	274.95
526.00	266.26
527.00	255.53
528.00	258.33
529.00	257.83
530.00	260.02
531.00	255.94
532.00	265.71
533.00	275.74
534.00	277.05
535.00	288.93
536.00	285.75
537.00	278.24
538.00	275.67
539.00	266.46
540.00	265.98
541.00	272.21
542.00	276.05
543.00	267.55
544.00	275.46
545.00	292.45
546.00	285.01
547.00	295.62
548.00	275.13
549.00	318.64
550.00	304.92
551.00	290.95
552.00	276.31
553.00	273.06
554.00	271.67
555.00	291.97
556.00	307.74
557.00	287.76
558.00	258.19
559.00	258.33
560.00	285.22
561.00	269.01
562.00	249.03
563.00	246.89
564.00	256.72
565.00	280.51
566.00	265.66
567.00	275.63
568.00	267.28
569.00	274.72
570.00	266.92
571.00	269.30
572.00	252.52
573.00	253.96
574.00	267.83
575.00	248.29
576.00	252.52
577.00	256.98
578.00	252.48
579.00	251.41
580.00	256.68
581.00	245.99
582.00	243.25
583.00	247.90
584.00	244.73
585.00	240.63
586.00	248.73
587.00	255.88
588.00	273.85
589.00	286.35
590.00	256.03
591.00	261.64
592.00	254.40
593.00	261.02
594.00	251.03
595.00	238.54
596.00	238.77
597.00	242.00
598.00	248.51
599.00	255.74
600.00	257.24
601.00	261.07
602.00	268.60
603.00	383.43
604.00	340.13
605.00	295.43
606.00	275.66
607.00	245.79
608.00	233.54
609.00	233.78
610.00	253.44
611.00	283.85
612.00	272.97
613.00	249.97
614.00	243.21
615.00	252.08
616.00	250.42
617.00	288.91
618.00	249.32
619.00	249.84
620.00	240.98
621.00	257.56
622.00	250.65
623.00	234.24
624.00	247.89
625.00	263.57
626.00	252.99
627.00	246.28
628.00	251.17
629.00	247.15
630.00	255.10
631.00	254.13
632.00	234.25
633.00	228.72
634.00	233.23
635.00	226.06
636.00	231.18
637.00	233.34
638.00	234.63
639.00	237.62
640.00	240.61
641.00	250.14
642.00	275.35
643.00	241.81
644.00	241.09
645.00	236.93
646.00	235.98
647.00	235.52
648.00	237.21
649.00	231.62
650.00	230.29
651.00	223.84
652.00	226.20
653.00	226.27
654.00	231.51
655.00	232.23
656.00	361.77
657.00	336.65
658.00	266.98
659.00	234.41
660.00	229.14
661.00	225.60
662.00	213.58
663.00	218.24
664.00	256.17
665.00	245.58
666.00	225.12
667.00	230.13
668.00	237.79
669.00	235.86
670.00	217.59
671.00	223.80
672.00	228.18
673.00	224.00
674.00	222.01
675.00	268.46
676.00	280.09
677.00	229.56
678.00	220.67
679.00	219.07
680.00	218.33
681.00	222.44
682.00	227.27
683.00	221.35
684.00	221.57
685.00	223.51
686.00	218.02
687.00	247.05
688.00	244.99
689.00	238.41
690.00	222.88
691.00	219.00
692.00	217.23
693.00	232.03
694.00	246.51
695.00	237.13
696.00	269.01
697.00	423.91
698.00	271.29
699.00	240.39
700.00	231.17
701.00	224.77
702.00	216.06
703.00	258.84
704.00	247.42
705.00	224.51
706.00	223.40
707.00	356.21
708.00	265.59
709.00	227.10
710.00	220.45
711.00	220.18
712.00	218.49
713.00	219.28
714.00	211.35
715.00	230.46
716.00	221.95
717.00	216.20
718.00	215.26
719.00	209.91
720.00	215.55
721.00	217.70
722.00	218.65
723.00	219.86
724.00	221.08
725.00	234.15
726.00	215.83
727.00	231.64
728.00	254.77
729.00	226.71
730.00	217.46
731.00	216.49
732.00	217.56
733.00	212.15
734.00	212.00
735.00	220.61
736.00	236.96
737.00	248.63
738.00	301.92
739.00	402.44
740.00	269.87
741.00	231.00
742.00	219.95
743.00	214.93
744.00	224.83
745.00	229.12
746.00	211.86
747.00	213.12
748.00	216.04
749.00	214.40
750.00	286.55
751.00	738.85
752.00	581.11
753.00	341.17
754.00	240.22
755.00	214.81
756.00	215.34
757.00	212.17
758.00	213.65
759.00	211.93
760.00	219.38
761.00	210.96
762.00	214.68
763.00	255.31
764.00	1178.12
765.00	593.57
766.00	340.62
767.00	231.85
768.00	214.47
769.00	213.00
770.00	206.49
771.00	210.88
772.00	221.84
773.00	415.95
774.00	286.62
775.00	238.66
776.00	208.75
777.00	221.91
778.00	327.04
779.00	247.65
780.00	217.46
781.00	214.59
782.00	206.10
783.00	211.53
784.00	210.78
785.00	207.68
786.00	212.47
787.00	211.79
788.00	211.86
789.00	218.97
790.00	218.20
791.00	220.62
792.00	212.96
793.00	212.84
794.00	214.99
795.00	356.46
796.00	363.45
797.00	252.28
798.00	225.37
799.00	211.22
800.00	211.22
801.00	339.32
802.00	504.43
803.00	343.53
804.00	250.80
805.00	226.11
806.00	212.11
807.00	211.85
808.00	210.68
809.00	217.67
810.00	225.32
811.00	491.98
812.00	2313.95
813.00	1320.17
814.00	552.80
815.00	338.99
816.00	220.67
817.00	213.78
818.00	207.69
819.00	213.61
820.00	209.39
821.00	206.04
822.00	206.76
823.00	208.43
824.00	205.18
825.00	214.59
826.00	210.64
827.00	303.04
828.00	252.83
829.00	225.02
830.00	212.37
831.00	206.98
832.00	205.18
833.00	207.66
834.00	205.98
835.00	213.13
836.00	209.79
837.00	208.16
838.00	208.43
839.00	203.85
840.00	213.20
841.00	276.10
842.00	314.24
843.00	506.07
844.00	353.58
845.00	267.19
846.00	236.26
847.00	211.67
848.00	205.77
849.00	208.00
850.00	203.39
851.00	202.83
852.00	217.35
853.00	277.27
854.00	227.76
855.00	216.74
856.00	216.55
857.00	204.09
858.00	208.93
859.00	202.04
860.00	206.43
861.00	208.99
862.00	207.27
863.00	208.69
864.00	213.90
865.00	208.05
866.00	206.70
867.00	210.77
868.00	215.01
869.00	208.87
870.00	207.01
871.00	205.95
872.00	208.67
873.00	207.16
874.00	202.04
875.00	206.40
876.00	209.94
877.00	210.77
878.00	206.01
879.00	204.16
880.00	205.90
881.00	207.43
882.00	203.37
883.00	205.72
884.00	203.00
885.00	206.50
886.00	203.64
887.00	209.95
888.00	202.29
889.00	202.32
890.00	206.62
891.00	209.15
892.00	205.28
893.00	208.22
894.00	203.54
895.00	209.45
896.00	204.91
897.00	200.95
898.00	202.38
899.00	199.52
900.00	205.02
901.00	203.06
902.00	200.98
903.00	207.63
904.00	202.81
905.00	205.02
906.00	204.09
907.00	208.99
908.00	205.57
909.00	205.76
910.00	207.13
911.00	203.81
912.00	226.62
913.00	345.93
914.00	279.28
915.00	245.09
916.00	226.81
917.00	212.66
918.00	201.11
919.00	208.05
920.00	207.34
921.00	210.47
922.00	204.05
923.00	227.08
924.00	217.73
925.00	215.11
926.00	208.00
927.00	212.06
928.00	203.95
929.00	204.09
930.00	201.28
931.00	203.63
932.00	201.47
933.00	201.83
934.00	205.11
935.00	202.10
936.00	206.68
937.00	201.99
938.00	205.16
939.00	202.71
940.00	200.26
941.00	207.66
942.00	209.08
943.00	206.95
944.00	201.81
945.00	214.54
946.00	201.95
947.00	199.06
948.00	203.94
949.00	202.24
950.00	206.15
951.00	203.47
952.00	203.96
953.00	201.65
954.00	202.52
955.00	208.50
956.00	201.09
957.00	204.82
958.00	202.29
959.00	203.97
960.00	203.05
961.00	205.75
962.00	200.29
963.00	205.16
964.00	202.19
965.00	201.23
966.00	205.69
967.00	208.83
968.00	211.00
969.00	208.61
970.00	204.46
971.00	209.39
972.00	206.17
973.00	205.45
974.00	205.12
975.00	205.09
976.00	203.18
977.00	202.42
978.00	208.78
979.00	202.55
980.00	201.18
981.00	202.87
982.00	206.12
983.00	204.69
984.00	203.44
985.00	207.43
986.00	208.32
987.00	199.75
988.00	206.88
989.00	202.18
990.00	202.51
991.00	206.19
992.00	203.25
993.00	206.31
994.00	207.88
995.00	204.14
996.00	204.39
997.00	206.76
998.00	199.63
999.00	201.47
1000.00	207.05
>>>>>End Processed Spectral Data<<<<<
