SpectraSuite Data File
++++++++++++++++++++++++++++++++++++
Date: Tue Oct 18 14:43:25 CDT 2011
User: Helimak
Dark Spectrum Present: No
Reference Spectrum Present: No
Number of Sampled Component Spectra: 1
Spectrometers: USB2G37154
Integration Time (usec): 200000 (USB2G37154)
Spectra Averaged: 1 (USB2G37154)
Boxcar Smoothing: 0 (USB2G37154)
Correct for Electrical Dark: No (USB2G37154)
Strobe/Lamp Enabled: No (USB2G37154)
Correct for Detector Non-linearity: No (USB2G37154)
Correct for Stray Light: No (USB2G37154)
Number of Pixels in Processed Spectrum: 651
>>>>>Begin Processed Spectral Data<<<<<
350.00	203.03
351.00	206.49
352.00	206.71
353.00	204.23
354.00	208.13
355.00	207.90
356.00	205.75
357.00	207.64
358.00	211.86
359.00	212.11
360.00	215.07
361.00	209.94
362.00	216.01
363.00	214.49
364.00	210.62
365.00	212.84
366.00	208.98
367.00	210.84
368.00	215.10
369.00	209.81
370.00	215.97
371.00	214.71
372.00	221.13
373.00	220.64
374.00	213.34
375.00	219.11
376.00	224.84
377.00	229.41
378.00	237.56
379.00	239.89
380.00	243.43
381.00	238.54
382.00	243.55
383.00	243.63
384.00	261.09
385.00	259.56
386.00	254.00
387.00	259.24
388.00	247.16
389.00	233.66
390.00	238.46
391.00	246.50
392.00	257.36
393.00	259.25
394.00	271.87
395.00	248.40
396.00	252.94
397.00	251.07
398.00	243.56
399.00	264.62
400.00	292.55
401.00	333.60
402.00	318.83
403.00	340.73
404.00	343.11
405.00	307.30
406.00	347.08
407.00	376.96
408.00	303.65
409.00	302.38
410.00	316.86
411.00	273.16
412.00	291.68
413.00	285.10
414.00	274.31
415.00	369.81
416.00	334.58
417.00	304.93
418.00	349.37
419.00	524.94
420.00	411.91
421.00	315.21
422.00	382.04
423.00	337.21
424.00	299.38
425.00	467.40
426.00	593.61
427.00	606.69
428.00	434.35
429.00	390.19
430.00	365.04
431.00	328.82
432.00	426.41
433.00	554.35
434.00	1551.03
435.00	894.80
436.00	534.19
437.00	475.55
438.00	376.65
439.00	508.84
440.00	454.71
441.00	427.97
442.00	953.67
443.00	575.78
444.00	350.48
445.00	279.85
446.00	280.43
447.00	337.65
448.00	325.65
449.00	301.10
450.00	319.49
451.00	319.73
452.00	324.34
453.00	348.09
454.00	504.63
455.00	394.70
456.00	359.82
457.00	469.20
458.00	683.88
459.00	535.79
460.00	905.18
461.00	643.37
462.00	400.47
463.00	326.70
464.00	302.63
465.00	446.46
466.00	350.10
467.00	305.15
468.00	310.10
469.00	312.96
470.00	312.69
471.00	314.13
472.00	485.30
473.00	557.68
474.00	373.63
475.00	348.17
476.00	526.41
477.00	362.64
478.00	298.71
479.00	324.56
480.00	1113.06
481.00	550.79
482.00	351.38
483.00	306.22
484.00	470.15
485.00	500.29
486.00	521.60
487.00	1424.65
488.00	1129.77
489.00	567.13
490.00	395.85
491.00	351.36
492.00	350.08
493.00	397.78
494.00	327.80
495.00	327.04
496.00	496.94
497.00	391.17
498.00	323.85
499.00	315.76
500.00	461.57
501.00	556.54
502.00	382.11
503.00	322.44
504.00	368.59
505.00	418.25
506.00	461.08
507.00	414.86
508.00	392.68
509.00	365.81
510.00	327.02
511.00	325.98
512.00	328.60
513.00	352.54
514.00	504.66
515.00	382.50
516.00	347.98
517.00	324.53
518.00	362.95
519.00	335.90
520.00	298.82
521.00	305.41
522.00	320.12
523.00	299.17
524.00	312.56
525.00	323.91
526.00	311.28
527.00	300.48
528.00	301.40
529.00	295.96
530.00	296.93
531.00	301.85
532.00	308.39
533.00	321.57
534.00	330.64
535.00	346.22
536.00	332.12
537.00	337.40
538.00	328.85
539.00	332.31
540.00	322.86
541.00	326.81
542.00	329.19
543.00	323.36
544.00	326.49
545.00	349.44
546.00	338.56
547.00	358.17
548.00	336.05
549.00	400.22
550.00	388.82
551.00	351.94
552.00	334.98
553.00	324.73
554.00	317.63
555.00	355.41
556.00	379.97
557.00	344.51
558.00	299.18
559.00	301.57
560.00	334.30
561.00	303.14
562.00	292.76
563.00	282.10
564.00	300.06
565.00	337.40
566.00	310.85
567.00	321.75
568.00	326.24
569.00	317.12
570.00	309.70
571.00	303.07
572.00	281.07
573.00	291.84
574.00	314.49
575.00	281.15
576.00	282.16
577.00	296.64
578.00	286.30
579.00	281.38
580.00	288.41
581.00	274.30
582.00	265.90
583.00	280.66
584.00	273.32
585.00	271.46
586.00	277.64
587.00	284.16
588.00	315.52
589.00	339.64
590.00	297.15
591.00	301.41
592.00	285.62
593.00	296.66
594.00	281.02
595.00	267.39
596.00	264.15
597.00	273.63
598.00	279.45
599.00	289.70
600.00	291.88
601.00	308.18
602.00	311.39
603.00	502.19
604.00	443.04
605.00	351.88
606.00	327.14
607.00	273.60
608.00	258.02
609.00	263.85
610.00	295.55
611.00	372.73
612.00	349.21
613.00	280.46
614.00	274.34
615.00	287.23
616.00	291.31
617.00	362.80
618.00	295.48
619.00	275.37
620.00	271.22
621.00	287.88
622.00	279.93
623.00	261.69
624.00	290.00
625.00	296.39
626.00	280.13
627.00	278.74
628.00	273.56
629.00	278.32
630.00	292.08
631.00	284.09
632.00	256.28
633.00	254.65
634.00	244.84
635.00	242.06
636.00	251.90
637.00	258.22
638.00	253.89
639.00	261.77
640.00	265.46
641.00	285.89
642.00	322.10
643.00	279.30
644.00	262.87
645.00	259.06
646.00	263.10
647.00	262.71
648.00	262.82
649.00	258.69
650.00	243.44
651.00	245.39
652.00	249.72
653.00	243.47
654.00	257.33
655.00	258.09
656.00	516.32
657.00	462.88
658.00	325.96
659.00	259.06
660.00	244.89
661.00	248.76
662.00	232.04
663.00	230.91
664.00	310.83
665.00	312.65
666.00	252.71
667.00	248.26
668.00	273.69
669.00	280.20
670.00	244.83
671.00	233.40
672.00	237.08
673.00	236.01
674.00	232.04
675.00	312.77
676.00	328.19
677.00	254.47
678.00	234.43
679.00	232.57
680.00	227.88
681.00	232.26
682.00	233.31
683.00	224.36
684.00	230.96
685.00	234.20
686.00	234.28
687.00	283.77
688.00	273.21
689.00	264.71
690.00	232.55
691.00	232.27
692.00	231.24
693.00	233.04
694.00	273.59
695.00	256.75
696.00	325.02
697.00	596.40
698.00	338.07
699.00	260.16
700.00	238.38
701.00	234.12
702.00	236.45
703.00	300.24
704.00	283.21
705.00	247.03
706.00	237.42
707.00	477.25
708.00	324.98
709.00	254.81
710.00	226.03
711.00	234.14
712.00	230.62
713.00	226.01
714.00	226.48
715.00	258.73
716.00	245.47
717.00	227.59
718.00	220.86
719.00	218.44
720.00	219.29
721.00	239.31
722.00	227.22
723.00	232.45
724.00	234.91
725.00	243.52
726.00	227.00
727.00	258.03
728.00	287.34
729.00	242.64
730.00	222.41
731.00	226.88
732.00	229.12
733.00	216.22
734.00	219.97
735.00	235.15
736.00	261.95
737.00	283.11
738.00	387.68
739.00	560.86
740.00	325.66
741.00	250.40
742.00	226.07
743.00	224.24
744.00	237.19
745.00	240.19
746.00	215.27
747.00	215.00
748.00	217.19
749.00	228.99
750.00	351.08
751.00	1185.41
752.00	901.19
753.00	459.10
754.00	275.35
755.00	223.61
756.00	220.63
757.00	218.49
758.00	219.28
759.00	224.24
760.00	221.58
761.00	217.26
762.00	228.97
763.00	291.90
764.00	1977.02
765.00	924.33
766.00	458.46
767.00	259.03
768.00	218.99
769.00	219.61
770.00	212.16
771.00	213.02
772.00	243.06
773.00	572.46
774.00	347.49
775.00	264.94
776.00	218.16
777.00	246.15
778.00	476.11
779.00	313.92
780.00	247.54
781.00	224.20
782.00	212.62
783.00	207.74
784.00	210.36
785.00	204.94
786.00	220.06
787.00	219.57
788.00	221.58
789.00	229.92
790.00	230.94
791.00	224.83
792.00	225.44
793.00	221.13
794.00	226.40
795.00	472.51
796.00	484.58
797.00	300.37
798.00	247.94
799.00	217.73
800.00	216.57
801.00	439.12
802.00	772.60
803.00	470.14
804.00	302.02
805.00	241.89
806.00	224.51
807.00	217.95
808.00	218.25
809.00	223.28
810.00	243.72
811.00	691.91
812.00	3609.90
813.00	2196.82
814.00	857.19
815.00	437.49
816.00	235.92
817.00	220.72
818.00	212.34
819.00	214.98
820.00	212.49
821.00	206.02
822.00	212.04
823.00	213.78
824.00	207.00
825.00	215.16
826.00	213.19
827.00	377.89
828.00	301.98
829.00	242.13
830.00	220.11
831.00	208.46
832.00	208.88
833.00	213.15
834.00	210.50
835.00	211.34
836.00	213.51
837.00	209.06
838.00	211.16
839.00	212.90
840.00	215.66
841.00	327.93
842.00	415.05
843.00	743.70
844.00	479.51
845.00	326.18
846.00	267.26
847.00	225.30
848.00	211.40
849.00	206.10
850.00	212.09
851.00	208.21
852.00	222.79
853.00	334.36
854.00	243.92
855.00	223.71
856.00	224.39
857.00	205.19
858.00	208.40
859.00	203.27
860.00	207.38
861.00	216.94
862.00	207.31
863.00	208.44
864.00	211.81
865.00	206.17
866.00	211.97
867.00	215.04
868.00	228.02
869.00	214.23
870.00	208.35
871.00	202.54
872.00	207.84
873.00	205.43
874.00	206.14
875.00	208.67
876.00	210.16
877.00	210.06
878.00	207.89
879.00	199.90
880.00	203.87
881.00	207.63
882.00	204.82
883.00	202.90
884.00	205.00
885.00	204.96
886.00	204.59
887.00	206.22
888.00	207.39
889.00	201.86
890.00	203.49
891.00	207.43
892.00	206.37
893.00	204.44
894.00	205.18
895.00	210.73
896.00	205.13
897.00	204.19
898.00	206.25
899.00	204.98
900.00	204.12
901.00	206.49
902.00	208.92
903.00	208.26
904.00	202.31
905.00	203.10
906.00	207.33
907.00	205.70
908.00	204.15
909.00	212.77
910.00	208.35
911.00	209.13
912.00	240.75
913.00	442.65
914.00	343.11
915.00	285.11
916.00	248.23
917.00	227.92
918.00	205.67
919.00	203.89
920.00	206.95
921.00	207.01
922.00	210.77
923.00	239.97
924.00	239.79
925.00	225.64
926.00	214.00
927.00	211.88
928.00	204.33
929.00	205.10
930.00	203.90
931.00	201.48
932.00	204.61
933.00	205.90
934.00	204.72
935.00	200.78
936.00	200.20
937.00	204.80
938.00	205.84
939.00	202.99
940.00	205.02
941.00	209.81
942.00	207.06
943.00	205.81
944.00	203.94
945.00	209.64
946.00	205.41
947.00	202.08
948.00	202.72
949.00	203.61
950.00	204.45
951.00	201.61
952.00	202.97
953.00	203.64
954.00	199.84
955.00	204.40
956.00	204.53
957.00	206.41
958.00	206.65
959.00	202.00
960.00	201.49
961.00	207.11
962.00	206.38
963.00	205.99
964.00	209.02
965.00	202.48
966.00	205.34
967.00	215.19
968.00	211.03
969.00	210.88
970.00	209.56
971.00	203.98
972.00	203.73
973.00	206.41
974.00	203.12
975.00	203.02
976.00	202.54
977.00	201.34
978.00	206.36
979.00	211.16
980.00	201.97
981.00	201.82
982.00	209.25
983.00	204.21
984.00	201.92
985.00	208.10
986.00	206.33
987.00	205.52
988.00	204.04
989.00	204.13
990.00	201.81
991.00	198.50
992.00	207.11
993.00	205.58
994.00	203.12
995.00	210.57
996.00	202.61
997.00	207.18
998.00	203.07
999.00	201.37
1000.00	206.27
>>>>>End Processed Spectral Data<<<<<
