SpectraSuite Data File
++++++++++++++++++++++++++++++++++++
Date: Tue Oct 18 14:54:17 CDT 2011
User: Helimak
Dark Spectrum Present: No
Reference Spectrum Present: No
Number of Sampled Component Spectra: 1
Spectrometers: USB2G37154
Integration Time (usec): 200000 (USB2G37154)
Spectra Averaged: 1 (USB2G37154)
Boxcar Smoothing: 0 (USB2G37154)
Correct for Electrical Dark: No (USB2G37154)
Strobe/Lamp Enabled: No (USB2G37154)
Correct for Detector Non-linearity: No (USB2G37154)
Correct for Stray Light: No (USB2G37154)
Number of Pixels in Processed Spectrum: 651
>>>>>Begin Processed Spectral Data<<<<<
350.00	203.33
351.00	202.51
352.00	201.11
353.00	199.83
354.00	204.25
355.00	201.92
356.00	203.44
357.00	198.95
358.00	203.95
359.00	200.35
360.00	205.69
361.00	205.53
362.00	207.40
363.00	199.62
364.00	207.30
365.00	208.48
366.00	201.68
367.00	206.66
368.00	200.57
369.00	204.05
370.00	208.01
371.00	206.05
372.00	202.10
373.00	207.97
374.00	206.26
375.00	208.39
376.00	204.63
377.00	207.42
378.00	215.09
379.00	213.00
380.00	219.31
381.00	217.07
382.00	214.73
383.00	211.93
384.00	216.43
385.00	216.61
386.00	217.98
387.00	216.43
388.00	214.91
389.00	215.34
390.00	216.16
391.00	215.67
392.00	217.11
393.00	220.59
394.00	219.81
395.00	216.70
396.00	217.08
397.00	214.84
398.00	214.88
399.00	221.64
400.00	228.48
401.00	233.81
402.00	236.43
403.00	243.53
404.00	237.48
405.00	230.30
406.00	238.00
407.00	238.71
408.00	230.27
409.00	230.53
410.00	231.90
411.00	220.91
412.00	226.54
413.00	224.20
414.00	224.66
415.00	257.42
416.00	242.09
417.00	232.66
418.00	245.04
419.00	298.17
420.00	269.20
421.00	233.45
422.00	241.78
423.00	235.65
424.00	234.52
425.00	281.77
426.00	311.71
427.00	304.14
428.00	262.88
429.00	267.20
430.00	257.84
431.00	241.80
432.00	265.25
433.00	296.48
434.00	421.46
435.00	328.60
436.00	273.69
437.00	268.32
438.00	250.89
439.00	269.40
440.00	262.64
441.00	255.39
442.00	329.38
443.00	273.94
444.00	240.92
445.00	228.12
446.00	231.92
447.00	234.82
448.00	239.09
449.00	235.01
450.00	246.85
451.00	246.28
452.00	248.23
453.00	253.74
454.00	279.96
455.00	262.65
456.00	263.73
457.00	279.33
458.00	309.44
459.00	283.95
460.00	339.87
461.00	293.84
462.00	252.60
463.00	246.04
464.00	242.44
465.00	270.55
466.00	254.75
467.00	239.34
468.00	249.64
469.00	251.53
470.00	243.15
471.00	240.62
472.00	270.00
473.00	273.88
474.00	249.60
475.00	248.43
476.00	273.00
477.00	250.38
478.00	238.47
479.00	239.30
480.00	355.03
481.00	283.25
482.00	253.40
483.00	244.95
484.00	267.02
485.00	284.49
486.00	298.81
487.00	434.68
488.00	388.51
489.00	294.34
490.00	270.40
491.00	267.32
492.00	259.96
493.00	265.65
494.00	256.23
495.00	253.45
496.00	279.78
497.00	264.51
498.00	248.81
499.00	249.85
500.00	273.43
501.00	288.51
502.00	264.02
503.00	250.65
504.00	267.80
505.00	278.58
506.00	285.71
507.00	281.94
508.00	281.39
509.00	267.86
510.00	258.43
511.00	255.06
512.00	251.51
513.00	255.24
514.00	278.43
515.00	267.39
516.00	255.35
517.00	253.21
518.00	261.60
519.00	259.06
520.00	246.31
521.00	252.93
522.00	252.88
523.00	244.86
524.00	249.64
525.00	255.02
526.00	248.79
527.00	246.74
528.00	246.32
529.00	242.65
530.00	239.94
531.00	244.26
532.00	249.88
533.00	253.32
534.00	254.64
535.00	259.90
536.00	260.31
537.00	262.12
538.00	251.14
539.00	256.07
540.00	248.93
541.00	247.29
542.00	258.52
543.00	251.72
544.00	252.08
545.00	259.15
546.00	264.81
547.00	268.51
548.00	253.41
549.00	276.98
550.00	278.56
551.00	267.01
552.00	258.34
553.00	254.77
554.00	252.05
555.00	264.61
556.00	271.40
557.00	262.55
558.00	243.82
559.00	250.33
560.00	255.10
561.00	247.54
562.00	239.61
563.00	240.18
564.00	242.03
565.00	246.73
566.00	251.82
567.00	252.51
568.00	256.12
569.00	253.22
570.00	251.26
571.00	251.48
572.00	235.88
573.00	243.01
574.00	242.02
575.00	240.23
576.00	238.14
577.00	240.34
578.00	240.62
579.00	237.10
580.00	236.03
581.00	233.16
582.00	228.68
583.00	237.83
584.00	236.12
585.00	233.44
586.00	235.15
587.00	238.97
588.00	249.08
589.00	256.01
590.00	242.13
591.00	248.60
592.00	237.77
593.00	246.60
594.00	230.01
595.00	226.76
596.00	224.73
597.00	234.68
598.00	236.51
599.00	242.96
600.00	234.37
601.00	248.24
602.00	247.77
603.00	310.46
604.00	287.43
605.00	258.40
606.00	247.72
607.00	235.53
608.00	225.87
609.00	225.95
610.00	237.45
611.00	249.02
612.00	239.04
613.00	233.18
614.00	230.88
615.00	236.34
616.00	230.08
617.00	250.97
618.00	235.97
619.00	243.59
620.00	231.56
621.00	240.76
622.00	238.33
623.00	224.96
624.00	231.01
625.00	235.57
626.00	241.09
627.00	231.92
628.00	236.32
629.00	237.41
630.00	240.03
631.00	240.87
632.00	226.40
633.00	226.23
634.00	223.52
635.00	225.01
636.00	222.94
637.00	224.86
638.00	225.78
639.00	226.84
640.00	231.57
641.00	234.05
642.00	247.75
643.00	231.03
644.00	224.62
645.00	230.54
646.00	235.04
647.00	231.69
648.00	223.77
649.00	225.13
650.00	215.28
651.00	223.60
652.00	219.57
653.00	222.82
654.00	230.39
655.00	222.44
656.00	298.01
657.00	288.42
658.00	238.99
659.00	223.14
660.00	223.23
661.00	218.46
662.00	212.61
663.00	218.54
664.00	232.81
665.00	224.46
666.00	218.43
667.00	222.04
668.00	233.95
669.00	223.13
670.00	216.77
671.00	217.09
672.00	209.08
673.00	219.00
674.00	217.34
675.00	237.62
676.00	246.44
677.00	224.04
678.00	215.09
679.00	212.76
680.00	209.80
681.00	213.62
682.00	215.32
683.00	211.72
684.00	219.49
685.00	220.35
686.00	211.63
687.00	227.12
688.00	224.90
689.00	225.65
690.00	218.68
691.00	212.08
692.00	216.75
693.00	217.84
694.00	229.06
695.00	224.80
696.00	241.01
697.00	330.68
698.00	247.84
699.00	223.73
700.00	216.97
701.00	218.48
702.00	212.51
703.00	236.84
704.00	232.92
705.00	221.98
706.00	216.62
707.00	285.93
708.00	243.20
709.00	223.55
710.00	207.53
711.00	217.80
712.00	212.66
713.00	215.28
714.00	213.69
715.00	223.44
716.00	217.23
717.00	211.40
718.00	211.37
719.00	211.05
720.00	211.88
721.00	214.98
722.00	211.94
723.00	214.92
724.00	216.22
725.00	233.65
726.00	214.41
727.00	218.66
728.00	232.82
729.00	218.01
730.00	209.04
731.00	211.55
732.00	213.66
733.00	205.88
734.00	213.10
735.00	215.26
736.00	225.05
737.00	227.99
738.00	259.29
739.00	307.35
740.00	248.64
741.00	217.78
742.00	214.99
743.00	214.92
744.00	214.75
745.00	217.51
746.00	206.47
747.00	207.65
748.00	208.06
749.00	213.03
750.00	249.79
751.00	500.25
752.00	415.47
753.00	281.13
754.00	225.11
755.00	209.84
756.00	209.48
757.00	210.51
758.00	213.38
759.00	211.76
760.00	209.37
761.00	209.77
762.00	211.61
763.00	237.73
764.00	712.43
765.00	426.57
766.00	278.62
767.00	218.92
768.00	211.54
769.00	209.73
770.00	210.30
771.00	208.43
772.00	212.08
773.00	314.38
774.00	250.19
775.00	228.54
776.00	207.18
777.00	213.13
778.00	272.04
779.00	231.29
780.00	214.61
781.00	211.45
782.00	204.63
783.00	210.06
784.00	213.50
785.00	215.14
786.00	207.92
787.00	211.14
788.00	204.25
789.00	215.04
790.00	216.86
791.00	212.92
792.00	212.32
793.00	210.96
794.00	208.84
795.00	286.47
796.00	289.16
797.00	233.83
798.00	221.29
799.00	214.04
800.00	206.94
801.00	274.65
802.00	376.92
803.00	286.45
804.00	233.85
805.00	212.56
806.00	210.25
807.00	207.03
808.00	210.43
809.00	212.16
810.00	216.10
811.00	365.02
812.00	1340.93
813.00	857.04
814.00	412.83
815.00	282.74
816.00	210.23
817.00	210.42
818.00	200.74
819.00	205.53
820.00	205.57
821.00	204.05
822.00	210.34
823.00	204.75
824.00	203.85
825.00	211.58
826.00	208.72
827.00	262.80
828.00	234.23
829.00	220.57
830.00	207.57
831.00	207.05
832.00	205.86
833.00	200.94
834.00	198.89
835.00	206.37
836.00	205.69
837.00	203.87
838.00	210.85
839.00	209.05
840.00	204.84
841.00	247.49
842.00	268.60
843.00	371.64
844.00	281.43
845.00	245.79
846.00	222.21
847.00	209.59
848.00	202.52
849.00	201.12
850.00	206.11
851.00	204.16
852.00	210.31
853.00	242.53
854.00	220.87
855.00	213.25
856.00	215.03
857.00	205.01
858.00	205.96
859.00	204.10
860.00	204.32
861.00	211.12
862.00	203.35
863.00	208.82
864.00	209.51
865.00	208.69
866.00	203.30
867.00	210.15
868.00	210.02
869.00	206.82
870.00	202.23
871.00	206.56
872.00	204.90
873.00	205.11
874.00	203.69
875.00	206.26
876.00	205.07
877.00	207.57
878.00	206.95
879.00	205.50
880.00	203.10
881.00	204.37
882.00	204.27
883.00	203.90
884.00	202.00
885.00	203.36
886.00	202.49
887.00	207.86
888.00	204.33
889.00	202.01
890.00	202.48
891.00	211.30
892.00	208.72
893.00	203.30
894.00	200.40
895.00	211.64
896.00	203.48
897.00	204.34
898.00	205.81
899.00	204.50
900.00	205.80
901.00	199.19
902.00	204.41
903.00	212.84
904.00	203.09
905.00	205.96
906.00	206.83
907.00	205.77
908.00	201.57
909.00	201.25
910.00	203.16
911.00	203.57
912.00	214.39
913.00	280.40
914.00	249.01
915.00	226.79
916.00	214.54
917.00	211.75
918.00	207.05
919.00	202.80
920.00	204.91
921.00	204.07
922.00	203.38
923.00	211.82
924.00	212.97
925.00	206.65
926.00	205.99
927.00	205.15
928.00	201.13
929.00	203.63
930.00	203.18
931.00	198.04
932.00	202.05
933.00	200.95
934.00	205.91
935.00	203.32
936.00	203.19
937.00	203.08
938.00	202.89
939.00	204.67
940.00	206.41
941.00	205.85
942.00	201.92
943.00	202.73
944.00	208.98
945.00	209.86
946.00	202.91
947.00	207.07
948.00	205.91
949.00	200.67
950.00	203.40
951.00	201.35
952.00	203.96
953.00	203.00
954.00	204.03
955.00	204.62
956.00	199.88
957.00	207.85
958.00	204.29
959.00	206.96
960.00	205.25
961.00	200.99
962.00	202.08
963.00	204.52
964.00	204.68
965.00	205.93
966.00	203.18
967.00	207.12
968.00	206.99
969.00	204.19
970.00	204.21
971.00	206.13
972.00	205.05
973.00	207.72
974.00	200.26
975.00	203.91
976.00	206.50
977.00	204.82
978.00	205.03
979.00	200.40
980.00	200.93
981.00	201.52
982.00	203.81
983.00	205.40
984.00	203.74
985.00	206.45
986.00	200.92
987.00	204.15
988.00	205.84
989.00	199.86
990.00	201.84
991.00	205.09
992.00	203.94
993.00	201.77
994.00	205.39
995.00	206.09
996.00	206.10
997.00	203.66
998.00	204.00
999.00	204.06
1000.00	200.81
>>>>>End Processed Spectral Data<<<<<
