SpectraSuite Data File
++++++++++++++++++++++++++++++++++++
Date: Tue Oct 18 14:35:49 CDT 2011
User: Helimak
Dark Spectrum Present: No
Reference Spectrum Present: No
Number of Sampled Component Spectra: 1
Spectrometers: USB2G37154
Integration Time (usec): 200000 (USB2G37154)
Spectra Averaged: 1 (USB2G37154)
Boxcar Smoothing: 0 (USB2G37154)
Correct for Electrical Dark: No (USB2G37154)
Strobe/Lamp Enabled: No (USB2G37154)
Correct for Detector Non-linearity: No (USB2G37154)
Correct for Stray Light: No (USB2G37154)
Number of Pixels in Processed Spectrum: 651
>>>>>Begin Processed Spectral Data<<<<<
350.00	203.32
351.00	203.96
352.00	201.35
353.00	206.22
354.00	206.65
355.00	207.38
356.00	210.12
357.00	206.21
358.00	215.30
359.00	209.40
360.00	212.40
361.00	208.49
362.00	209.18
363.00	209.12
364.00	208.98
365.00	206.59
366.00	204.66
367.00	204.11
368.00	212.29
369.00	210.53
370.00	209.11
371.00	206.70
372.00	217.26
373.00	211.13
374.00	211.08
375.00	216.07
376.00	216.65
377.00	219.98
378.00	226.30
379.00	222.64
380.00	229.48
381.00	229.37
382.00	224.04
383.00	230.58
384.00	239.09
385.00	240.69
386.00	239.05
387.00	238.27
388.00	233.25
389.00	228.36
390.00	225.16
391.00	230.07
392.00	242.36
393.00	240.50
394.00	249.01
395.00	232.85
396.00	232.08
397.00	235.14
398.00	229.31
399.00	239.72
400.00	264.51
401.00	289.35
402.00	276.44
403.00	298.90
404.00	304.00
405.00	274.25
406.00	301.06
407.00	314.15
408.00	273.44
409.00	274.40
410.00	282.86
411.00	251.43
412.00	265.01
413.00	260.10
414.00	253.35
415.00	336.12
416.00	296.89
417.00	274.37
418.00	310.16
419.00	457.73
420.00	364.96
421.00	279.33
422.00	331.98
423.00	289.06
424.00	275.65
425.00	402.80
426.00	494.52
427.00	493.30
428.00	352.86
429.00	337.86
430.00	320.09
431.00	285.42
432.00	356.28
433.00	452.33
434.00	1086.93
435.00	636.09
436.00	417.26
437.00	391.55
438.00	319.64
439.00	408.12
440.00	362.84
441.00	358.97
442.00	716.57
443.00	447.01
444.00	298.49
445.00	256.73
446.00	258.95
447.00	297.56
448.00	283.12
449.00	275.11
450.00	289.84
451.00	292.03
452.00	288.31
453.00	312.52
454.00	413.02
455.00	331.28
456.00	305.83
457.00	380.36
458.00	544.22
459.00	431.08
460.00	681.01
461.00	494.48
462.00	333.46
463.00	281.83
464.00	271.93
465.00	368.29
466.00	305.97
467.00	274.26
468.00	267.22
469.00	277.11
470.00	279.92
471.00	278.19
472.00	397.82
473.00	442.63
474.00	319.65
475.00	298.51
476.00	431.53
477.00	309.15
478.00	272.62
479.00	291.06
480.00	783.11
481.00	425.45
482.00	301.80
483.00	275.55
484.00	380.81
485.00	397.45
486.00	410.01
487.00	1042.00
488.00	824.37
489.00	454.47
490.00	336.10
491.00	308.31
492.00	298.56
493.00	327.00
494.00	291.63
495.00	284.15
496.00	401.72
497.00	322.73
498.00	282.03
499.00	278.62
500.00	367.83
501.00	440.53
502.00	322.04
503.00	288.76
504.00	321.88
505.00	352.18
506.00	372.30
507.00	345.19
508.00	332.18
509.00	310.53
510.00	286.15
511.00	285.01
512.00	282.96
513.00	295.91
514.00	404.63
515.00	324.50
516.00	306.88
517.00	288.29
518.00	318.31
519.00	292.91
520.00	271.57
521.00	282.72
522.00	288.89
523.00	271.08
524.00	277.13
525.00	295.95
526.00	278.72
527.00	263.28
528.00	269.24
529.00	261.23
530.00	265.00
531.00	268.16
532.00	284.27
533.00	289.43
534.00	290.60
535.00	299.98
536.00	290.09
537.00	290.49
538.00	285.64
539.00	287.10
540.00	282.06
541.00	283.08
542.00	294.12
543.00	285.20
544.00	287.61
545.00	314.35
546.00	305.09
547.00	313.28
548.00	291.96
549.00	344.39
550.00	335.77
551.00	305.88
552.00	292.22
553.00	285.16
554.00	278.73
555.00	314.21
556.00	326.77
557.00	304.77
558.00	270.96
559.00	275.11
560.00	304.69
561.00	283.46
562.00	266.55
563.00	257.29
564.00	267.08
565.00	296.64
566.00	280.68
567.00	288.16
568.00	285.23
569.00	284.36
570.00	276.87
571.00	274.20
572.00	260.43
573.00	266.31
574.00	283.21
575.00	261.01
576.00	253.57
577.00	268.49
578.00	261.21
579.00	257.18
580.00	261.29
581.00	245.38
582.00	245.67
583.00	257.96
584.00	258.24
585.00	249.28
586.00	259.70
587.00	258.10
588.00	283.73
589.00	311.02
590.00	263.80
591.00	268.20
592.00	259.06
593.00	273.56
594.00	266.03
595.00	249.01
596.00	240.25
597.00	248.70
598.00	260.26
599.00	263.86
600.00	268.65
601.00	275.14
602.00	273.04
603.00	453.91
604.00	380.73
605.00	319.97
606.00	300.78
607.00	251.69
608.00	246.48
609.00	239.92
610.00	271.67
611.00	324.91
612.00	304.97
613.00	260.25
614.00	253.35
615.00	257.24
616.00	255.97
617.00	336.86
618.00	277.52
619.00	258.28
620.00	247.45
621.00	269.31
622.00	262.12
623.00	240.35
624.00	268.22
625.00	262.14
626.00	257.25
627.00	251.16
628.00	252.40
629.00	258.60
630.00	265.54
631.00	270.81
632.00	240.17
633.00	236.03
634.00	230.54
635.00	232.04
636.00	236.27
637.00	247.19
638.00	242.85
639.00	242.92
640.00	245.15
641.00	256.53
642.00	293.04
643.00	247.78
644.00	240.47
645.00	240.12
646.00	242.85
647.00	240.30
648.00	246.90
649.00	236.60
650.00	232.19
651.00	227.84
652.00	228.82
653.00	229.31
654.00	239.59
655.00	236.20
656.00	409.63
657.00	369.61
658.00	281.98
659.00	236.55
660.00	233.16
661.00	234.65
662.00	222.52
663.00	219.12
664.00	273.79
665.00	271.66
666.00	238.22
667.00	235.25
668.00	253.41
669.00	256.58
670.00	228.17
671.00	224.41
672.00	227.91
673.00	227.01
674.00	223.21
675.00	287.91
676.00	301.70
677.00	245.60
678.00	226.61
679.00	219.44
680.00	219.58
681.00	223.51
682.00	222.57
683.00	220.40
684.00	222.66
685.00	224.89
686.00	220.41
687.00	264.88
688.00	262.52
689.00	249.45
690.00	225.63
691.00	218.71
692.00	227.73
693.00	223.85
694.00	258.33
695.00	242.92
696.00	286.02
697.00	517.15
698.00	306.79
699.00	248.67
700.00	228.17
701.00	224.49
702.00	221.06
703.00	277.21
704.00	264.28
705.00	234.05
706.00	229.70
707.00	406.07
708.00	295.44
709.00	240.35
710.00	222.38
711.00	223.27
712.00	225.54
713.00	219.63
714.00	219.52
715.00	243.50
716.00	235.43
717.00	217.37
718.00	211.12
719.00	212.58
720.00	217.77
721.00	224.33
722.00	218.64
723.00	219.26
724.00	218.44
725.00	239.96
726.00	215.30
727.00	235.78
728.00	270.86
729.00	235.18
730.00	220.58
731.00	221.61
732.00	222.63
733.00	214.41
734.00	215.54
735.00	218.72
736.00	244.78
737.00	264.86
738.00	349.53
739.00	486.36
740.00	303.52
741.00	244.22
742.00	221.98
743.00	218.05
744.00	233.04
745.00	228.26
746.00	210.54
747.00	218.96
748.00	216.24
749.00	222.26
750.00	304.45
751.00	986.15
752.00	746.71
753.00	403.10
754.00	262.52
755.00	222.84
756.00	213.66
757.00	212.78
758.00	212.85
759.00	215.29
760.00	217.13
761.00	213.64
762.00	219.14
763.00	264.98
764.00	1576.16
765.00	782.76
766.00	402.37
767.00	246.45
768.00	218.39
769.00	207.36
770.00	214.82
771.00	209.59
772.00	228.34
773.00	499.43
774.00	320.77
775.00	250.45
776.00	214.91
777.00	227.53
778.00	357.01
779.00	263.55
780.00	230.17
781.00	209.34
782.00	209.33
783.00	207.65
784.00	207.90
785.00	214.58
786.00	211.41
787.00	213.11
788.00	216.69
789.00	219.98
790.00	224.65
791.00	223.54
792.00	217.95
793.00	217.01
794.00	222.18
795.00	398.89
796.00	426.00
797.00	288.09
798.00	243.87
799.00	216.69
800.00	209.36
801.00	380.34
802.00	639.87
803.00	409.38
804.00	278.46
805.00	226.41
806.00	214.96
807.00	215.89
808.00	214.00
809.00	218.16
810.00	230.96
811.00	582.39
812.00	2905.84
813.00	1801.85
814.00	729.08
815.00	399.22
816.00	229.62
817.00	216.16
818.00	209.89
819.00	212.21
820.00	206.85
821.00	206.00
822.00	208.01
823.00	206.78
824.00	205.81
825.00	213.54
826.00	212.90
827.00	338.18
828.00	276.36
829.00	231.45
830.00	214.57
831.00	209.83
832.00	208.32
833.00	200.99
834.00	208.94
835.00	211.98
836.00	208.27
837.00	207.54
838.00	209.53
839.00	209.99
840.00	213.27
841.00	300.78
842.00	366.49
843.00	614.12
844.00	420.07
845.00	291.17
846.00	254.89
847.00	215.46
848.00	209.07
849.00	204.76
850.00	206.91
851.00	207.51
852.00	217.95
853.00	311.49
854.00	237.51
855.00	221.87
856.00	223.54
857.00	209.88
858.00	207.37
859.00	204.30
860.00	206.49
861.00	210.68
862.00	209.16
863.00	209.47
864.00	216.16
865.00	209.02
866.00	210.41
867.00	214.57
868.00	219.03
869.00	212.20
870.00	208.19
871.00	212.06
872.00	206.01
873.00	206.51
874.00	205.14
875.00	204.46
876.00	209.07
877.00	206.72
878.00	209.64
879.00	204.56
880.00	204.10
881.00	204.53
882.00	206.16
883.00	207.52
884.00	202.00
885.00	206.15
886.00	207.71
887.00	207.85
888.00	201.22
889.00	201.99
890.00	207.24
891.00	205.30
892.00	206.29
893.00	204.74
894.00	203.88
895.00	210.90
896.00	203.63
897.00	204.30
898.00	201.21
899.00	202.48
900.00	204.47
901.00	207.99
902.00	203.16
903.00	206.25
904.00	202.54
905.00	207.07
906.00	208.90
907.00	205.03
908.00	206.44
909.00	205.51
910.00	204.57
911.00	208.46
912.00	231.48
913.00	388.96
914.00	309.39
915.00	263.96
916.00	244.43
917.00	216.10
918.00	205.51
919.00	207.88
920.00	205.92
921.00	208.72
922.00	202.48
923.00	227.81
924.00	224.04
925.00	221.53
926.00	207.00
927.00	211.90
928.00	203.45
929.00	205.38
930.00	205.73
931.00	202.28
932.00	207.89
933.00	205.00
934.00	205.88
935.00	200.73
936.00	200.73
937.00	202.98
938.00	206.21
939.00	205.65
940.00	205.41
941.00	200.38
942.00	204.05
943.00	201.43
944.00	200.21
945.00	209.90
946.00	205.36
947.00	201.96
948.00	205.01
949.00	202.34
950.00	204.70
951.00	204.82
952.00	203.96
953.00	204.64
954.00	203.64
955.00	206.50
956.00	203.80
957.00	202.85
958.00	199.61
959.00	206.92
960.00	205.74
961.00	201.35
962.00	202.67
963.00	202.33
964.00	204.49
965.00	202.47
966.00	203.44
967.00	210.83
968.00	215.02
969.00	206.15
970.00	206.48
971.00	203.84
972.00	207.95
973.00	206.24
974.00	206.52
975.00	208.16
976.00	204.69
977.00	203.06
978.00	204.14
979.00	207.56
980.00	198.60
981.00	203.22
982.00	206.69
983.00	205.98
984.00	202.23
985.00	208.68
986.00	199.73
987.00	208.76
988.00	199.81
989.00	202.04
990.00	204.04
991.00	203.11
992.00	202.49
993.00	205.97
994.00	205.49
995.00	205.81
996.00	205.19
997.00	205.05
998.00	205.17
999.00	203.88
1000.00	199.64
>>>>>End Processed Spectral Data<<<<<
