SpectraSuite Data File
++++++++++++++++++++++++++++++++++++
Date: Tue Oct 18 14:54:16 CDT 2011
User: Helimak
Dark Spectrum Present: No
Reference Spectrum Present: No
Number of Sampled Component Spectra: 1
Spectrometers: USB2G37154
Integration Time (usec): 200000 (USB2G37154)
Spectra Averaged: 1 (USB2G37154)
Boxcar Smoothing: 0 (USB2G37154)
Correct for Electrical Dark: No (USB2G37154)
Strobe/Lamp Enabled: No (USB2G37154)
Correct for Detector Non-linearity: No (USB2G37154)
Correct for Stray Light: No (USB2G37154)
Number of Pixels in Processed Spectrum: 651
>>>>>Begin Processed Spectral Data<<<<<
350.00	198.37
351.00	204.47
352.00	199.39
353.00	204.80
354.00	203.34
355.00	203.46
356.00	204.44
357.00	201.58
358.00	207.30
359.00	203.97
360.00	208.22
361.00	203.42
362.00	207.47
363.00	206.86
364.00	202.89
365.00	208.67
366.00	205.32
367.00	203.86
368.00	203.11
369.00	203.51
370.00	206.01
371.00	204.08
372.00	209.33
373.00	205.09
374.00	208.26
375.00	206.26
376.00	205.99
377.00	211.16
378.00	211.21
379.00	215.05
380.00	214.20
381.00	211.39
382.00	214.65
383.00	212.81
384.00	215.58
385.00	220.67
386.00	218.97
387.00	219.51
388.00	215.18
389.00	212.68
390.00	215.83
391.00	217.02
392.00	217.89
393.00	217.72
394.00	220.72
395.00	218.28
396.00	215.99
397.00	215.77
398.00	211.20
399.00	222.21
400.00	229.53
401.00	235.49
402.00	235.68
403.00	242.73
404.00	241.76
405.00	233.19
406.00	236.00
407.00	238.78
408.00	228.03
409.00	229.48
410.00	230.61
411.00	227.49
412.00	225.30
413.00	224.18
414.00	221.79
415.00	254.88
416.00	241.44
417.00	234.57
418.00	247.70
419.00	289.66
420.00	270.82
421.00	231.95
422.00	242.61
423.00	238.68
424.00	232.57
425.00	276.64
426.00	304.59
427.00	303.40
428.00	263.95
429.00	259.49
430.00	252.81
431.00	236.40
432.00	260.61
433.00	291.56
434.00	422.33
435.00	323.80
436.00	264.81
437.00	261.90
438.00	248.29
439.00	266.48
440.00	260.75
441.00	259.14
442.00	325.92
443.00	273.12
444.00	236.87
445.00	226.06
446.00	231.94
447.00	238.50
448.00	234.72
449.00	238.02
450.00	243.12
451.00	245.09
452.00	247.48
453.00	248.21
454.00	283.91
455.00	265.29
456.00	265.26
457.00	278.28
458.00	307.54
459.00	284.82
460.00	330.92
461.00	289.77
462.00	260.54
463.00	246.11
464.00	237.26
465.00	265.59
466.00	251.03
467.00	237.38
468.00	244.07
469.00	247.04
470.00	242.52
471.00	244.14
472.00	271.13
473.00	281.28
474.00	254.39
475.00	247.23
476.00	281.74
477.00	251.67
478.00	235.95
479.00	248.59
480.00	364.85
481.00	280.33
482.00	249.19
483.00	244.14
484.00	268.26
485.00	288.56
486.00	297.75
487.00	421.12
488.00	378.96
489.00	296.48
490.00	264.27
491.00	264.47
492.00	260.57
493.00	263.79
494.00	253.78
495.00	249.04
496.00	274.07
497.00	259.94
498.00	257.84
499.00	253.88
500.00	267.73
501.00	282.07
502.00	262.02
503.00	255.14
504.00	269.72
505.00	274.18
506.00	275.73
507.00	286.02
508.00	275.60
509.00	271.03
510.00	253.47
511.00	256.01
512.00	251.74
513.00	255.78
514.00	279.46
515.00	253.83
516.00	257.10
517.00	249.37
518.00	267.50
519.00	255.28
520.00	244.68
521.00	244.01
522.00	249.28
523.00	241.80
524.00	248.39
525.00	255.73
526.00	250.76
527.00	244.28
528.00	243.06
529.00	241.71
530.00	241.87
531.00	240.68
532.00	250.37
533.00	260.05
534.00	258.77
535.00	263.19
536.00	259.77
537.00	262.65
538.00	251.90
539.00	248.43
540.00	249.96
541.00	254.56
542.00	254.35
543.00	251.50
544.00	252.45
545.00	256.17
546.00	260.31
547.00	264.96
548.00	253.53
549.00	282.57
550.00	269.94
551.00	268.96
552.00	252.79
553.00	246.99
554.00	243.84
555.00	261.68
556.00	264.70
557.00	255.30
558.00	243.54
559.00	244.06
560.00	258.01
561.00	247.49
562.00	243.68
563.00	241.47
564.00	243.67
565.00	251.65
566.00	242.61
567.00	248.49
568.00	249.15
569.00	251.71
570.00	251.96
571.00	254.28
572.00	238.28
573.00	243.36
574.00	246.92
575.00	234.17
576.00	230.12
577.00	242.39
578.00	237.32
579.00	238.52
580.00	233.80
581.00	232.38
582.00	228.40
583.00	238.02
584.00	234.00
585.00	227.76
586.00	241.13
587.00	242.19
588.00	251.94
589.00	250.69
590.00	243.92
591.00	245.23
592.00	240.54
593.00	239.64
594.00	233.05
595.00	232.51
596.00	227.76
597.00	233.41
598.00	236.53
599.00	237.16
600.00	237.83
601.00	244.20
602.00	247.45
603.00	310.97
604.00	288.15
605.00	258.59
606.00	250.73
607.00	232.47
608.00	230.03
609.00	225.93
610.00	238.33
611.00	250.52
612.00	239.10
613.00	234.07
614.00	230.28
615.00	235.46
616.00	235.29
617.00	244.00
618.00	236.57
619.00	245.07
620.00	233.88
621.00	243.68
622.00	232.19
623.00	221.96
624.00	236.23
625.00	231.57
626.00	239.10
627.00	229.86
628.00	238.20
629.00	236.96
630.00	238.22
631.00	238.27
632.00	227.19
633.00	221.83
634.00	223.44
635.00	220.95
636.00	223.19
637.00	229.84
638.00	227.15
639.00	223.16
640.00	231.28
641.00	238.20
642.00	241.92
643.00	228.48
644.00	224.73
645.00	227.85
646.00	235.04
647.00	226.56
648.00	227.84
649.00	219.47
650.00	219.43
651.00	216.40
652.00	222.06
653.00	219.77
654.00	226.71
655.00	225.08
656.00	297.40
657.00	289.37
658.00	241.99
659.00	218.99
660.00	214.45
661.00	221.05
662.00	217.10
663.00	213.17
664.00	235.53
665.00	229.18
666.00	223.87
667.00	218.17
668.00	228.04
669.00	225.07
670.00	217.38
671.00	218.79
672.00	215.53
673.00	219.96
674.00	215.09
675.00	242.24
676.00	240.87
677.00	219.53
678.00	212.51
679.00	218.38
680.00	211.03
681.00	215.03
682.00	218.43
683.00	212.68
684.00	221.73
685.00	223.86
686.00	213.93
687.00	228.68
688.00	225.03
689.00	219.07
690.00	218.50
691.00	217.02
692.00	214.30
693.00	215.51
694.00	228.09
695.00	222.98
696.00	241.01
697.00	321.39
698.00	241.71
699.00	226.78
700.00	219.99
701.00	214.63
702.00	216.21
703.00	235.78
704.00	237.79
705.00	221.14
706.00	220.28
707.00	285.67
708.00	243.58
709.00	221.35
710.00	218.61
711.00	213.38
712.00	212.14
713.00	213.80
714.00	209.32
715.00	222.44
716.00	213.01
717.00	215.38
718.00	208.22
719.00	210.01
720.00	211.70
721.00	214.52
722.00	209.30
723.00	217.91
724.00	213.67
725.00	230.59
726.00	210.83
727.00	221.07
728.00	232.49
729.00	217.62
730.00	206.32
731.00	213.83
732.00	212.32
733.00	207.39
734.00	212.09
735.00	214.55
736.00	216.82
737.00	230.80
738.00	259.19
739.00	316.86
740.00	243.59
741.00	217.04
742.00	213.97
743.00	211.04
744.00	215.97
745.00	219.51
746.00	206.85
747.00	205.75
748.00	214.60
749.00	214.99
750.00	249.44
751.00	488.76
752.00	407.37
753.00	291.95
754.00	225.62
755.00	210.18
756.00	207.09
757.00	208.44
758.00	210.57
759.00	214.28
760.00	209.66
761.00	215.68
762.00	209.13
763.00	230.61
764.00	704.38
765.00	420.56
766.00	284.16
767.00	220.33
768.00	207.44
769.00	204.41
770.00	206.59
771.00	205.75
772.00	213.69
773.00	313.08
774.00	244.33
775.00	222.71
776.00	208.68
777.00	214.67
778.00	265.05
779.00	234.63
780.00	213.47
781.00	203.61
782.00	206.46
783.00	205.12
784.00	211.07
785.00	207.38
786.00	210.66
787.00	215.79
788.00	214.00
789.00	217.00
790.00	214.85
791.00	211.37
792.00	210.79
793.00	212.16
794.00	212.30
795.00	287.14
796.00	298.22
797.00	239.02
798.00	219.35
799.00	208.82
800.00	213.50
801.00	275.36
802.00	365.81
803.00	281.93
804.00	234.16
805.00	212.76
806.00	211.04
807.00	210.96
808.00	208.91
809.00	216.85
810.00	221.67
811.00	359.17
812.00	1335.43
813.00	840.28
814.00	414.54
815.00	282.64
816.00	213.00
817.00	211.27
818.00	206.95
819.00	204.84
820.00	208.57
821.00	208.06
822.00	205.13
823.00	209.70
824.00	207.74
825.00	214.76
826.00	210.12
827.00	257.77
828.00	237.37
829.00	213.91
830.00	209.28
831.00	207.68
832.00	204.68
833.00	207.87
834.00	204.26
835.00	206.74
836.00	207.87
837.00	209.40
838.00	207.14
839.00	205.02
840.00	210.49
841.00	244.29
842.00	266.11
843.00	363.74
844.00	277.21
845.00	239.07
846.00	222.70
847.00	207.48
848.00	204.60
849.00	204.58
850.00	208.18
851.00	202.44
852.00	208.48
853.00	242.62
854.00	217.01
855.00	212.30
856.00	217.79
857.00	205.89
858.00	211.78
859.00	204.13
860.00	201.41
861.00	208.98
862.00	203.82
863.00	205.38
864.00	208.76
865.00	203.39
866.00	205.25
867.00	205.83
868.00	212.96
869.00	209.90
870.00	207.65
871.00	207.65
872.00	203.76
873.00	207.79
874.00	203.45
875.00	203.26
876.00	204.25
877.00	207.42
878.00	204.11
879.00	203.03
880.00	203.97
881.00	201.99
882.00	204.11
883.00	204.45
884.00	207.99
885.00	203.24
886.00	205.46
887.00	203.93
888.00	202.30
889.00	201.66
890.00	203.02
891.00	204.21
892.00	203.02
893.00	203.92
894.00	201.48
895.00	207.73
896.00	202.97
897.00	204.46
898.00	202.67
899.00	200.68
900.00	204.35
901.00	202.01
902.00	200.89
903.00	209.93
904.00	202.74
905.00	202.95
906.00	209.11
907.00	205.74
908.00	205.56
909.00	205.63
910.00	207.25
911.00	203.98
912.00	218.24
913.00	276.21
914.00	251.25
915.00	227.96
916.00	220.53
917.00	212.86
918.00	202.85
919.00	209.34
920.00	202.42
921.00	209.04
922.00	207.46
923.00	214.68
924.00	216.48
925.00	212.07
926.00	207.02
927.00	207.95
928.00	202.20
929.00	204.06
930.00	204.27
931.00	202.67
932.00	202.12
933.00	202.17
934.00	201.38
935.00	202.95
936.00	202.58
937.00	204.04
938.00	206.82
939.00	200.23
940.00	205.38
941.00	202.72
942.00	205.97
943.00	200.57
944.00	202.90
945.00	208.34
946.00	202.56
947.00	202.01
948.00	203.44
949.00	205.76
950.00	204.77
951.00	206.16
952.00	200.07
953.00	207.84
954.00	200.92
955.00	209.55
956.00	200.43
957.00	204.23
958.00	202.33
959.00	203.84
960.00	206.74
961.00	202.73
962.00	211.51
963.00	205.36
964.00	203.99
965.00	207.64
966.00	196.12
967.00	212.08
968.00	204.98
969.00	204.42
970.00	206.11
971.00	208.35
972.00	200.00
973.00	208.36
974.00	201.64
975.00	203.48
976.00	204.35
977.00	202.14
978.00	205.09
979.00	205.98
980.00	204.17
981.00	202.84
982.00	208.38
983.00	203.40
984.00	200.78
985.00	206.75
986.00	202.19
987.00	204.57
988.00	204.25
989.00	207.13
990.00	199.50
991.00	204.29
992.00	205.21
993.00	203.44
994.00	204.93
995.00	206.40
996.00	203.81
997.00	207.75
998.00	199.47
999.00	207.03
1000.00	207.11
>>>>>End Processed Spectral Data<<<<<
