SpectraSuite Data File
++++++++++++++++++++++++++++++++++++
Date: Tue Oct 18 14:45:27 CDT 2011
User: Helimak
Dark Spectrum Present: No
Reference Spectrum Present: No
Number of Sampled Component Spectra: 1
Spectrometers: USB2G37154
Integration Time (usec): 200000 (USB2G37154)
Spectra Averaged: 1 (USB2G37154)
Boxcar Smoothing: 0 (USB2G37154)
Correct for Electrical Dark: No (USB2G37154)
Strobe/Lamp Enabled: No (USB2G37154)
Correct for Detector Non-linearity: No (USB2G37154)
Correct for Stray Light: No (USB2G37154)
Number of Pixels in Processed Spectrum: 651
>>>>>Begin Processed Spectral Data<<<<<
350.00	200.57
351.00	202.70
352.00	202.36
353.00	202.90
354.00	198.80
355.00	200.29
356.00	206.09
357.00	204.75
358.00	206.30
359.00	207.10
360.00	207.95
361.00	205.09
362.00	207.98
363.00	206.46
364.00	205.36
365.00	208.43
366.00	206.73
367.00	206.97
368.00	210.68
369.00	209.31
370.00	209.04
371.00	207.50
372.00	209.64
373.00	208.03
374.00	208.70
375.00	210.09
376.00	207.90
377.00	215.28
378.00	214.72
379.00	220.91
380.00	220.63
381.00	219.11
382.00	222.77
383.00	225.73
384.00	230.64
385.00	226.67
386.00	228.96
387.00	231.81
388.00	220.40
389.00	220.34
390.00	218.29
391.00	220.89
392.00	220.80
393.00	226.18
394.00	230.70
395.00	222.78
396.00	225.98
397.00	223.01
398.00	223.49
399.00	233.26
400.00	241.39
401.00	252.46
402.00	250.14
403.00	261.65
404.00	260.55
405.00	250.46
406.00	253.03
407.00	263.11
408.00	239.58
409.00	240.40
410.00	247.95
411.00	233.02
412.00	233.51
413.00	238.07
414.00	229.79
415.00	282.23
416.00	264.73
417.00	254.18
418.00	270.20
419.00	356.81
420.00	301.37
421.00	249.32
422.00	266.87
423.00	253.91
424.00	247.20
425.00	321.66
426.00	364.05
427.00	350.58
428.00	292.43
429.00	285.05
430.00	276.25
431.00	256.61
432.00	286.77
433.00	342.35
434.00	628.84
435.00	421.60
436.00	313.63
437.00	306.03
438.00	274.71
439.00	311.55
440.00	289.79
441.00	291.76
442.00	430.54
443.00	324.06
444.00	252.22
445.00	239.85
446.00	233.01
447.00	252.74
448.00	253.78
449.00	242.90
450.00	262.29
451.00	261.75
452.00	265.29
453.00	268.14
454.00	313.45
455.00	283.59
456.00	275.63
457.00	309.06
458.00	372.59
459.00	330.73
460.00	437.94
461.00	352.11
462.00	285.88
463.00	258.94
464.00	249.50
465.00	294.35
466.00	270.53
467.00	249.06
468.00	253.51
469.00	252.82
470.00	253.05
471.00	254.02
472.00	306.96
473.00	322.49
474.00	269.44
475.00	265.68
476.00	322.33
477.00	265.05
478.00	247.12
479.00	255.46
480.00	497.34
481.00	331.80
482.00	269.37
483.00	252.23
484.00	303.16
485.00	325.49
486.00	334.11
487.00	599.00
488.00	508.88
489.00	341.69
490.00	284.61
491.00	273.58
492.00	274.81
493.00	278.56
494.00	265.90
495.00	255.23
496.00	316.87
497.00	279.74
498.00	261.11
499.00	256.06
500.00	303.04
501.00	338.63
502.00	285.03
503.00	262.15
504.00	283.99
505.00	308.62
506.00	310.54
507.00	303.00
508.00	295.93
509.00	281.52
510.00	267.30
511.00	264.98
512.00	266.90
513.00	266.45
514.00	319.99
515.00	283.06
516.00	274.85
517.00	259.92
518.00	280.79
519.00	269.74
520.00	249.83
521.00	256.01
522.00	261.95
523.00	251.81
524.00	254.40
525.00	264.21
526.00	261.38
527.00	249.15
528.00	250.88
529.00	249.76
530.00	247.15
531.00	249.20
532.00	258.58
533.00	262.38
534.00	267.67
535.00	268.93
536.00	277.48
537.00	273.70
538.00	264.47
539.00	261.08
540.00	260.04
541.00	262.88
542.00	266.25
543.00	263.60
544.00	268.71
545.00	275.93
546.00	275.90
547.00	279.85
548.00	265.37
549.00	306.64
550.00	291.94
551.00	281.99
552.00	270.45
553.00	264.81
554.00	259.78
555.00	282.12
556.00	287.52
557.00	272.24
558.00	248.16
559.00	249.36
560.00	267.22
561.00	261.30
562.00	249.08
563.00	245.81
564.00	250.78
565.00	262.91
566.00	261.18
567.00	267.11
568.00	262.03
569.00	262.34
570.00	257.97
571.00	262.62
572.00	243.30
573.00	249.52
574.00	256.75
575.00	244.24
576.00	239.72
577.00	249.76
578.00	248.37
579.00	246.07
580.00	245.09
581.00	234.23
582.00	240.14
583.00	245.00
584.00	242.46
585.00	236.88
586.00	242.73
587.00	246.03
588.00	255.51
589.00	279.33
590.00	247.59
591.00	257.19
592.00	251.93
593.00	250.92
594.00	247.04
595.00	232.92
596.00	229.70
597.00	236.17
598.00	243.17
599.00	249.96
600.00	249.25
601.00	250.13
602.00	257.01
603.00	361.66
604.00	318.85
605.00	285.04
606.00	262.54
607.00	238.48
608.00	229.49
609.00	228.08
610.00	244.08
611.00	268.89
612.00	259.34
613.00	243.54
614.00	240.34
615.00	246.37
616.00	245.86
617.00	277.92
618.00	250.59
619.00	249.64
620.00	233.32
621.00	251.52
622.00	238.19
623.00	231.12
624.00	242.59
625.00	248.88
626.00	241.99
627.00	239.23
628.00	235.68
629.00	243.70
630.00	251.34
631.00	245.96
632.00	230.61
633.00	228.01
634.00	227.41
635.00	229.07
636.00	229.79
637.00	231.79
638.00	231.42
639.00	233.05
640.00	247.08
641.00	251.62
642.00	266.71
643.00	241.42
644.00	232.73
645.00	234.57
646.00	237.05
647.00	236.55
648.00	233.54
649.00	229.21
650.00	222.95
651.00	223.82
652.00	224.23
653.00	232.18
654.00	231.46
655.00	223.80
656.00	337.50
657.00	316.35
658.00	254.99
659.00	229.73
660.00	224.29
661.00	222.56
662.00	216.08
663.00	217.41
664.00	242.61
665.00	240.88
666.00	230.48
667.00	225.91
668.00	232.06
669.00	236.79
670.00	226.23
671.00	221.10
672.00	217.43
673.00	225.00
674.00	225.13
675.00	256.45
676.00	262.98
677.00	229.10
678.00	221.55
679.00	218.43
680.00	207.74
681.00	217.24
682.00	221.71
683.00	216.38
684.00	218.35
685.00	221.42
686.00	219.17
687.00	244.11
688.00	244.45
689.00	234.39
690.00	223.34
691.00	220.15
692.00	221.61
693.00	221.19
694.00	243.33
695.00	234.96
696.00	264.01
697.00	398.86
698.00	266.99
699.00	232.51
700.00	219.64
701.00	225.18
702.00	220.35
703.00	253.64
704.00	245.55
705.00	227.13
706.00	216.99
707.00	324.92
708.00	259.27
709.00	225.67
710.00	215.81
711.00	220.34
712.00	219.15
713.00	215.46
714.00	211.58
715.00	234.45
716.00	220.88
717.00	216.25
718.00	215.02
719.00	208.22
720.00	216.74
721.00	220.21
722.00	218.36
723.00	216.96
724.00	210.46
725.00	232.73
726.00	216.65
727.00	230.53
728.00	246.91
729.00	222.53
730.00	212.87
731.00	218.21
732.00	215.02
733.00	212.61
734.00	208.19
735.00	214.41
736.00	230.49
737.00	242.92
738.00	298.79
739.00	376.33
740.00	261.49
741.00	229.91
742.00	214.98
743.00	216.09
744.00	224.08
745.00	221.63
746.00	205.65
747.00	209.96
748.00	211.18
749.00	213.60
750.00	279.36
751.00	659.04
752.00	533.69
753.00	324.74
754.00	238.53
755.00	218.62
756.00	214.47
757.00	210.34
758.00	216.13
759.00	216.65
760.00	200.31
761.00	207.89
762.00	217.70
763.00	245.26
764.00	1052.11
765.00	537.42
766.00	321.04
767.00	225.23
768.00	217.09
769.00	208.76
770.00	209.14
771.00	209.77
772.00	217.48
773.00	387.64
774.00	274.06
775.00	235.51
776.00	209.83
777.00	222.93
778.00	306.01
779.00	243.59
780.00	217.19
781.00	209.84
782.00	209.61
783.00	207.63
784.00	210.66
785.00	211.27
786.00	210.38
787.00	214.17
788.00	214.68
789.00	217.98
790.00	219.92
791.00	213.50
792.00	216.96
793.00	211.12
794.00	210.86
795.00	326.66
796.00	344.34
797.00	251.95
798.00	227.59
799.00	213.73
800.00	214.60
801.00	324.50
802.00	469.21
803.00	331.53
804.00	245.24
805.00	219.27
806.00	217.12
807.00	212.95
808.00	212.16
809.00	219.01
810.00	227.56
811.00	448.79
812.00	2069.67
813.00	1226.43
814.00	521.80
815.00	319.18
816.00	221.28
817.00	216.14
818.00	209.95
819.00	208.01
820.00	205.42
821.00	203.95
822.00	202.47
823.00	208.17
824.00	204.78
825.00	213.37
826.00	205.82
827.00	291.67
828.00	247.25
829.00	219.51
830.00	213.37
831.00	207.17
832.00	208.46
833.00	209.19
834.00	208.19
835.00	208.29
836.00	208.89
837.00	210.56
838.00	205.60
839.00	210.97
840.00	208.25
841.00	265.10
842.00	301.76
843.00	470.52
844.00	340.56
845.00	259.09
846.00	232.72
847.00	209.18
848.00	205.27
849.00	207.89
850.00	207.09
851.00	201.88
852.00	213.40
853.00	274.38
854.00	228.62
855.00	211.20
856.00	219.39
857.00	204.32
858.00	206.09
859.00	205.15
860.00	207.32
861.00	210.54
862.00	203.60
863.00	206.01
864.00	213.27
865.00	208.92
866.00	203.01
867.00	212.44
868.00	213.98
869.00	206.65
870.00	208.67
871.00	206.09
872.00	203.93
873.00	204.06
874.00	202.92
875.00	207.55
876.00	204.61
877.00	202.52
878.00	203.88
879.00	203.19
880.00	206.07
881.00	199.84
882.00	205.00
883.00	205.54
884.00	205.00
885.00	206.07
886.00	203.50
887.00	207.40
888.00	204.12
889.00	204.77
890.00	207.34
891.00	208.14
892.00	205.67
893.00	200.24
894.00	202.72
895.00	206.77
896.00	201.97
897.00	202.76
898.00	207.83
899.00	203.96
900.00	208.18
901.00	212.54
902.00	199.27
903.00	206.57
904.00	201.96
905.00	201.94
906.00	211.27
907.00	203.48
908.00	204.04
909.00	203.48
910.00	206.80
911.00	205.17
912.00	226.12
913.00	327.05
914.00	277.16
915.00	243.61
916.00	222.81
917.00	212.58
918.00	204.60
919.00	206.74
920.00	206.02
921.00	208.63
922.00	206.32
923.00	227.79
924.00	216.00
925.00	214.05
926.00	211.97
927.00	207.42
928.00	204.15
929.00	206.79
930.00	207.62
931.00	203.56
932.00	204.13
933.00	206.06
934.00	204.50
935.00	199.28
936.00	204.71
937.00	202.08
938.00	207.20
939.00	208.68
940.00	208.82
941.00	208.97
942.00	204.00
943.00	203.15
944.00	206.03
945.00	207.41
946.00	200.98
947.00	200.23
948.00	204.68
949.00	199.23
950.00	201.55
951.00	202.71
952.00	199.04
953.00	205.14
954.00	200.90
955.00	207.02
956.00	205.08
957.00	202.53
958.00	203.90
959.00	203.89
960.00	203.55
961.00	200.50
962.00	204.44
963.00	199.80
964.00	205.70
965.00	198.61
966.00	200.19
967.00	204.14
968.00	207.96
969.00	205.09
970.00	207.55
971.00	208.35
972.00	199.56
973.00	208.99
974.00	206.00
975.00	205.28
976.00	204.16
977.00	201.95
978.00	204.69
979.00	204.31
980.00	202.22
981.00	206.44
982.00	205.81
983.00	204.63
984.00	199.56
985.00	211.29
986.00	207.79
987.00	200.59
988.00	206.56
989.00	202.77
990.00	202.07
991.00	203.44
992.00	203.99
993.00	203.34
994.00	207.70
995.00	201.55
996.00	199.77
997.00	208.57
998.00	205.04
999.00	207.00
1000.00	203.42
>>>>>End Processed Spectral Data<<<<<
