SpectraSuite Data File
++++++++++++++++++++++++++++++++++++
Date: Tue Oct 18 14:26:38 CDT 2011
User: Helimak
Dark Spectrum Present: No
Reference Spectrum Present: No
Number of Sampled Component Spectra: 1
Spectrometers: USB2G37154
Integration Time (usec): 100000 (USB2G37154)
Spectra Averaged: 1 (USB2G37154)
Boxcar Smoothing: 0 (USB2G37154)
Correct for Electrical Dark: No (USB2G37154)
Strobe/Lamp Enabled: No (USB2G37154)
Correct for Detector Non-linearity: No (USB2G37154)
Correct for Stray Light: No (USB2G37154)
Number of Pixels in Processed Spectrum: 651
>>>>>Begin Processed Spectral Data<<<<<
350.00	201.54
351.00	202.68
352.00	199.45
353.00	199.90
354.00	204.16
355.00	201.73
356.00	204.49
357.00	203.75
358.00	209.77
359.00	203.31
360.00	204.01
361.00	203.05
362.00	206.70
363.00	204.23
364.00	205.21
365.00	202.23
366.00	201.76
367.00	200.92
368.00	203.43
369.00	209.58
370.00	203.04
371.00	202.36
372.00	203.50
373.00	205.81
374.00	206.63
375.00	206.13
376.00	204.32
377.00	202.94
378.00	202.66
379.00	205.43
380.00	207.03
381.00	205.03
382.00	205.22
383.00	206.80
384.00	208.00
385.00	206.69
386.00	206.87
387.00	204.53
388.00	204.19
389.00	205.47
390.00	201.88
391.00	207.29
392.00	206.51
393.00	202.64
394.00	201.76
395.00	207.90
396.00	208.00
397.00	207.19
398.00	204.83
399.00	203.31
400.00	203.61
401.00	202.06
402.00	205.08
403.00	204.94
404.00	204.19
405.00	205.29
406.00	203.99
407.00	207.29
408.00	204.78
409.00	205.55
410.00	205.62
411.00	204.53
412.00	205.11
413.00	204.95
414.00	204.48
415.00	205.23
416.00	209.05
417.00	210.52
418.00	208.52
419.00	206.08
420.00	205.16
421.00	204.47
422.00	204.08
423.00	206.20
424.00	208.54
425.00	206.30
426.00	206.10
427.00	209.84
428.00	208.40
429.00	207.44
430.00	204.18
431.00	205.44
432.00	207.28
433.00	205.65
434.00	206.14
435.00	208.67
436.00	201.57
437.00	208.61
438.00	207.95
439.00	203.72
440.00	205.47
441.00	207.89
442.00	206.87
443.00	207.00
444.00	205.19
445.00	210.92
446.00	205.82
447.00	203.35
448.00	206.59
449.00	204.09
450.00	204.61
451.00	202.70
452.00	201.39
453.00	202.78
454.00	209.81
455.00	206.53
456.00	206.82
457.00	205.60
458.00	206.43
459.00	205.33
460.00	205.28
461.00	207.18
462.00	200.97
463.00	204.58
464.00	206.88
465.00	207.28
466.00	206.36
467.00	205.20
468.00	205.97
469.00	207.50
470.00	204.66
471.00	203.55
472.00	200.24
473.00	202.07
474.00	209.17
475.00	202.03
476.00	208.04
477.00	207.54
478.00	206.74
479.00	201.41
480.00	205.71
481.00	206.00
482.00	208.27
483.00	208.48
484.00	209.18
485.00	202.93
486.00	206.43
487.00	202.81
488.00	203.88
489.00	207.05
490.00	211.01
491.00	209.02
492.00	205.88
493.00	206.03
494.00	207.32
495.00	204.30
496.00	202.09
497.00	200.01
498.00	201.27
499.00	205.75
500.00	207.07
501.00	205.83
502.00	209.01
503.00	204.67
504.00	200.82
505.00	206.64
506.00	204.78
507.00	193.82
508.00	204.60
509.00	209.12
510.00	203.26
511.00	205.05
512.00	204.91
513.00	205.92
514.00	206.74
515.00	203.35
516.00	205.18
517.00	204.58
518.00	201.91
519.00	202.00
520.00	206.00
521.00	205.43
522.00	203.06
523.00	204.68
524.00	206.41
525.00	207.17
526.00	207.08
527.00	199.75
528.00	204.51
529.00	203.56
530.00	202.95
531.00	203.69
532.00	202.40
533.00	201.74
534.00	201.84
535.00	201.03
536.00	205.77
537.00	206.72
538.00	206.31
539.00	201.98
540.00	194.03
541.00	206.44
542.00	208.44
543.00	201.66
544.00	204.99
545.00	204.16
546.00	208.99
547.00	203.95
548.00	196.81
549.00	206.72
550.00	203.17
551.00	205.03
552.00	201.01
553.00	201.52
554.00	210.02
555.00	205.98
556.00	201.74
557.00	200.12
558.00	202.65
559.00	201.80
560.00	204.87
561.00	204.99
562.00	203.25
563.00	203.90
564.00	203.36
565.00	204.47
566.00	202.94
567.00	205.24
568.00	207.07
569.00	203.97
570.00	204.97
571.00	212.09
572.00	201.28
573.00	203.96
574.00	204.13
575.00	203.98
576.00	204.65
577.00	202.96
578.00	204.32
579.00	204.61
580.00	202.71
581.00	203.15
582.00	202.81
583.00	204.88
584.00	200.72
585.00	206.47
586.00	207.94
587.00	206.07
588.00	207.01
589.00	202.01
590.00	206.80
591.00	204.81
592.00	203.58
593.00	207.11
594.00	203.01
595.00	203.49
596.00	202.44
597.00	201.51
598.00	203.97
599.00	204.82
600.00	203.93
601.00	205.14
602.00	208.26
603.00	206.38
604.00	203.12
605.00	204.52
606.00	204.83
607.00	199.93
608.00	205.67
609.00	201.96
610.00	201.66
611.00	203.44
612.00	199.99
613.00	202.68
614.00	199.87
615.00	203.00
616.00	202.03
617.00	206.98
618.00	208.31
619.00	203.33
620.00	200.73
621.00	203.99
622.00	202.60
623.00	206.07
624.00	206.18
625.00	204.02
626.00	204.94
627.00	200.63
628.00	199.90
629.00	208.26
630.00	202.43
631.00	203.86
632.00	204.32
633.00	203.43
634.00	200.10
635.00	203.93
636.00	204.46
637.00	201.63
638.00	202.04
639.00	203.76
640.00	202.57
641.00	204.47
642.00	202.87
643.00	207.57
644.00	204.40
645.00	203.19
646.00	202.91
647.00	204.09
648.00	205.44
649.00	203.88
650.00	207.16
651.00	202.57
652.00	204.51
653.00	202.15
654.00	203.39
655.00	201.42
656.00	202.74
657.00	204.75
658.00	204.00
659.00	201.91
660.00	202.42
661.00	204.35
662.00	204.09
663.00	200.70
664.00	207.39
665.00	204.44
666.00	204.39
667.00	204.46
668.00	209.15
669.00	203.58
670.00	198.43
671.00	200.54
672.00	201.16
673.00	205.03
674.00	199.75
675.00	203.18
676.00	203.53
677.00	203.66
678.00	201.62
679.00	202.61
680.00	204.72
681.00	204.61
682.00	210.25
683.00	204.72
684.00	208.72
685.00	204.22
686.00	203.18
687.00	202.37
688.00	203.41
689.00	207.62
690.00	199.92
691.00	202.37
692.00	202.07
693.00	202.04
694.00	201.10
695.00	199.99
696.00	203.00
697.00	206.14
698.00	203.10
699.00	206.82
700.00	204.30
701.00	200.36
702.00	198.56
703.00	204.08
704.00	203.50
705.00	204.22
706.00	207.60
707.00	207.06
708.00	201.49
709.00	207.03
710.00	201.37
711.00	203.77
712.00	202.59
713.00	203.76
714.00	204.51
715.00	204.42
716.00	202.04
717.00	202.22
718.00	201.97
719.00	205.33
720.00	201.34
721.00	206.32
722.00	210.23
723.00	202.75
724.00	205.20
725.00	213.80
726.00	202.41
727.00	199.82
728.00	202.89
729.00	200.20
730.00	204.17
731.00	204.84
732.00	203.53
733.00	206.25
734.00	205.63
735.00	204.02
736.00	206.26
737.00	202.57
738.00	203.99
739.00	201.91
740.00	207.99
741.00	208.09
742.00	203.02
743.00	204.01
744.00	202.06
745.00	206.04
746.00	199.92
747.00	205.46
748.00	203.82
749.00	205.12
750.00	202.16
751.00	204.67
752.00	199.91
753.00	203.81
754.00	205.47
755.00	202.14
756.00	203.52
757.00	205.16
758.00	203.62
759.00	208.90
760.00	204.47
761.00	201.50
762.00	199.47
763.00	204.92
764.00	200.98
765.00	204.18
766.00	204.31
767.00	200.99
768.00	198.37
769.00	202.55
770.00	201.90
771.00	202.14
772.00	201.77
773.00	204.10
774.00	201.52
775.00	207.01
776.00	205.12
777.00	208.91
778.00	203.02
779.00	207.11
780.00	201.76
781.00	206.12
782.00	200.31
783.00	202.56
784.00	204.34
785.00	202.77
786.00	205.64
787.00	201.87
788.00	204.87
789.00	203.98
790.00	204.05
791.00	202.36
792.00	202.17
793.00	200.90
794.00	199.17
795.00	206.09
796.00	204.44
797.00	203.05
798.00	203.13
799.00	200.78
800.00	200.91
801.00	204.89
802.00	203.24
803.00	207.71
804.00	201.82
805.00	201.78
806.00	201.02
807.00	202.86
808.00	200.81
809.00	203.31
810.00	204.27
811.00	200.97
812.00	201.26
813.00	205.21
814.00	204.15
815.00	204.90
816.00	204.16
817.00	203.54
818.00	202.84
819.00	202.83
820.00	203.34
821.00	206.07
822.00	202.02
823.00	202.38
824.00	203.32
825.00	205.11
826.00	203.86
827.00	202.21
828.00	198.76
829.00	203.13
830.00	201.27
831.00	205.21
832.00	203.60
833.00	202.89
834.00	202.25
835.00	208.03
836.00	209.23
837.00	204.44
838.00	202.21
839.00	201.12
840.00	204.60
841.00	202.23
842.00	205.49
843.00	207.35
844.00	201.82
845.00	202.27
846.00	202.93
847.00	206.45
848.00	204.78
849.00	208.55
850.00	205.15
851.00	203.58
852.00	204.79
853.00	206.76
854.00	203.42
855.00	203.06
856.00	208.54
857.00	204.09
858.00	207.69
859.00	203.92
860.00	203.06
861.00	203.55
862.00	202.59
863.00	202.75
864.00	204.77
865.00	200.56
866.00	201.91
867.00	201.52
868.00	208.99
869.00	203.58
870.00	206.73
871.00	207.35
872.00	204.14
873.00	201.38
874.00	200.85
875.00	200.14
876.00	203.98
877.00	202.93
878.00	203.11
879.00	202.81
880.00	199.83
881.00	200.07
882.00	201.33
883.00	203.85
884.00	202.00
885.00	204.07
886.00	204.91
887.00	200.99
888.00	203.25
889.00	203.80
890.00	205.50
891.00	208.15
892.00	204.24
893.00	201.16
894.00	208.31
895.00	206.16
896.00	203.68
897.00	204.23
898.00	200.30
899.00	204.61
900.00	203.97
901.00	207.82
902.00	206.83
903.00	203.65
904.00	202.05
905.00	200.08
906.00	207.12
907.00	200.25
908.00	201.19
909.00	202.39
910.00	205.34
911.00	202.66
912.00	202.77
913.00	205.50
914.00	203.83
915.00	204.18
916.00	201.71
917.00	203.93
918.00	202.32
919.00	204.11
920.00	202.15
921.00	204.74
922.00	202.20
923.00	208.10
924.00	201.57
925.00	202.07
926.00	202.00
927.00	205.94
928.00	202.15
929.00	197.91
930.00	204.13
931.00	198.75
932.00	202.31
933.00	202.38
934.00	208.26
935.00	203.47
936.00	203.53
937.00	201.96
938.00	204.32
939.00	204.09
940.00	205.55
941.00	198.81
942.00	200.95
943.00	200.73
944.00	204.03
945.00	200.18
946.00	201.22
947.00	201.94
948.00	202.79
949.00	199.34
950.00	204.03
951.00	201.90
952.00	204.01
953.00	201.65
954.00	200.68
955.00	204.55
956.00	203.91
957.00	204.24
958.00	203.29
959.00	199.97
960.00	202.03
961.00	202.58
962.00	200.58
963.00	203.65
964.00	204.71
965.00	202.15
966.00	200.15
967.00	204.67
968.00	206.98
969.00	203.01
970.00	204.93
971.00	202.44
972.00	202.08
973.00	203.90
974.00	206.16
975.00	201.90
976.00	198.28
977.00	201.96
978.00	206.05
979.00	200.57
980.00	201.11
981.00	202.59
982.00	203.63
983.00	204.59
984.00	202.46
985.00	206.44
986.00	203.37
987.00	201.01
988.00	205.07
989.00	205.44
990.00	200.23
991.00	206.05
992.00	201.02
993.00	206.19
994.00	207.38
995.00	204.60
996.00	203.42
997.00	202.77
998.00	203.13
999.00	205.68
1000.00	204.01
>>>>>End Processed Spectral Data<<<<<
