SpectraSuite Data File
++++++++++++++++++++++++++++++++++++
Date: Tue Oct 18 14:28:37 CDT 2011
User: Helimak
Dark Spectrum Present: No
Reference Spectrum Present: No
Number of Sampled Component Spectra: 1
Spectrometers: USB2G37154
Integration Time (usec): 200000 (USB2G37154)
Spectra Averaged: 1 (USB2G37154)
Boxcar Smoothing: 0 (USB2G37154)
Correct for Electrical Dark: No (USB2G37154)
Strobe/Lamp Enabled: No (USB2G37154)
Correct for Detector Non-linearity: No (USB2G37154)
Correct for Stray Light: No (USB2G37154)
Number of Pixels in Processed Spectrum: 651
>>>>>Begin Processed Spectral Data<<<<<
350.00	199.71
351.00	207.43
352.00	203.54
353.00	205.48
354.00	205.13
355.00	207.65
356.00	207.41
357.00	202.28
358.00	209.49
359.00	205.63
360.00	203.05
361.00	206.58
362.00	212.32
363.00	206.23
364.00	212.67
365.00	209.27
366.00	205.19
367.00	210.05
368.00	207.09
369.00	207.17
370.00	211.00
371.00	214.21
372.00	215.43
373.00	217.14
374.00	211.84
375.00	216.37
376.00	213.36
377.00	220.08
378.00	224.89
379.00	226.82
380.00	233.60
381.00	225.83
382.00	233.45
383.00	229.98
384.00	246.09
385.00	243.98
386.00	245.08
387.00	241.28
388.00	234.13
389.00	230.62
390.00	228.56
391.00	235.00
392.00	242.53
393.00	239.52
394.00	248.97
395.00	235.99
396.00	232.09
397.00	234.27
398.00	230.18
399.00	244.47
400.00	269.33
401.00	281.37
402.00	283.60
403.00	296.03
404.00	298.35
405.00	277.81
406.00	295.06
407.00	302.94
408.00	269.24
409.00	270.79
410.00	276.81
411.00	255.44
412.00	261.11
413.00	258.41
414.00	250.15
415.00	313.99
416.00	292.41
417.00	269.35
418.00	300.82
419.00	423.80
420.00	349.38
421.00	278.84
422.00	322.49
423.00	294.89
424.00	274.91
425.00	380.91
426.00	455.15
427.00	465.25
428.00	346.51
429.00	337.56
430.00	315.16
431.00	288.44
432.00	352.98
433.00	440.91
434.00	1017.17
435.00	622.28
436.00	415.81
437.00	379.51
438.00	318.43
439.00	402.22
440.00	363.34
441.00	356.56
442.00	650.64
443.00	434.51
444.00	294.11
445.00	260.80
446.00	256.13
447.00	291.93
448.00	286.90
449.00	271.02
450.00	288.55
451.00	292.47
452.00	292.93
453.00	308.96
454.00	399.73
455.00	335.39
456.00	321.55
457.00	384.73
458.00	500.96
459.00	419.98
460.00	639.23
461.00	460.24
462.00	333.64
463.00	285.21
464.00	276.29
465.00	365.15
466.00	311.18
467.00	276.17
468.00	278.61
469.00	279.68
470.00	282.52
471.00	282.88
472.00	397.28
473.00	429.99
474.00	318.74
475.00	288.62
476.00	414.57
477.00	310.58
478.00	273.69
479.00	305.14
480.00	760.16
481.00	425.90
482.00	309.13
483.00	275.28
484.00	376.22
485.00	410.73
486.00	415.37
487.00	971.02
488.00	767.56
489.00	434.15
490.00	337.45
491.00	314.94
492.00	314.67
493.00	332.43
494.00	297.26
495.00	291.94
496.00	395.08
497.00	327.42
498.00	290.31
499.00	294.20
500.00	374.98
501.00	420.18
502.00	331.05
503.00	294.87
504.00	321.55
505.00	368.18
506.00	377.60
507.00	358.03
508.00	350.17
509.00	320.52
510.00	304.17
511.00	290.00
512.00	288.37
513.00	306.61
514.00	402.21
515.00	324.65
516.00	307.93
517.00	291.04
518.00	318.43
519.00	305.62
520.00	279.03
521.00	276.56
522.00	288.73
523.00	279.25
524.00	287.77
525.00	293.91
526.00	290.03
527.00	283.53
528.00	282.88
529.00	275.98
530.00	266.06
531.00	284.91
532.00	288.58
533.00	301.77
534.00	294.13
535.00	314.94
536.00	299.92
537.00	304.93
538.00	296.98
539.00	291.04
540.00	282.83
541.00	288.50
542.00	297.34
543.00	294.88
544.00	303.26
545.00	309.39
546.00	310.77
547.00	318.22
548.00	298.57
549.00	354.69
550.00	338.93
551.00	313.89
552.00	296.43
553.00	290.27
554.00	286.90
555.00	320.25
556.00	332.22
557.00	309.40
558.00	274.16
559.00	276.37
560.00	310.70
561.00	290.78
562.00	270.72
563.00	262.22
564.00	275.32
565.00	297.95
566.00	288.77
567.00	291.38
568.00	296.94
569.00	291.62
570.00	281.85
571.00	282.11
572.00	268.11
573.00	268.38
574.00	291.44
575.00	265.73
576.00	257.47
577.00	272.99
578.00	270.91
579.00	265.04
580.00	261.89
581.00	253.18
582.00	252.48
583.00	265.85
584.00	259.93
585.00	256.26
586.00	267.86
587.00	267.14
588.00	284.22
589.00	306.06
590.00	269.09
591.00	272.72
592.00	267.93
593.00	270.50
594.00	267.01
595.00	251.12
596.00	248.99
597.00	251.53
598.00	256.26
599.00	270.40
600.00	272.52
601.00	280.24
602.00	285.38
603.00	422.93
604.00	374.87
605.00	318.73
606.00	298.57
607.00	262.66
608.00	245.98
609.00	245.91
610.00	272.83
611.00	311.85
612.00	306.02
613.00	261.48
614.00	258.42
615.00	265.42
616.00	260.78
617.00	320.91
618.00	272.79
619.00	260.36
620.00	254.17
621.00	274.68
622.00	264.78
623.00	245.52
624.00	276.08
625.00	274.33
626.00	262.17
627.00	254.65
628.00	257.16
629.00	264.74
630.00	271.40
631.00	270.64
632.00	244.95
633.00	242.67
634.00	234.12
635.00	238.93
636.00	243.97
637.00	241.96
638.00	243.72
639.00	249.77
640.00	255.25
641.00	265.00
642.00	295.59
643.00	256.89
644.00	256.59
645.00	248.17
646.00	254.04
647.00	251.74
648.00	251.80
649.00	243.09
650.00	240.40
651.00	233.95
652.00	237.70
653.00	235.74
654.00	246.52
655.00	241.59
656.00	421.89
657.00	389.39
658.00	286.98
659.00	245.56
660.00	237.88
661.00	236.21
662.00	226.09
663.00	224.15
664.00	275.55
665.00	280.64
666.00	242.57
667.00	239.88
668.00	252.64
669.00	254.54
670.00	230.68
671.00	225.61
672.00	227.99
673.00	229.99
674.00	231.39
675.00	283.92
676.00	293.50
677.00	238.63
678.00	228.65
679.00	222.47
680.00	221.05
681.00	221.48
682.00	223.02
683.00	224.46
684.00	227.77
685.00	227.32
686.00	225.03
687.00	259.01
688.00	251.51
689.00	248.54
690.00	229.40
691.00	226.62
692.00	223.47
693.00	227.60
694.00	248.32
695.00	243.90
696.00	290.02
697.00	495.32
698.00	301.10
699.00	249.58
700.00	232.78
701.00	227.27
702.00	229.66
703.00	274.85
704.00	262.02
705.00	233.32
706.00	229.71
707.00	396.87
708.00	284.11
709.00	237.98
710.00	219.91
711.00	226.40
712.00	221.91
713.00	222.11
714.00	215.52
715.00	246.48
716.00	227.96
717.00	221.30
718.00	218.78
719.00	215.73
720.00	221.55
721.00	225.57
722.00	224.09
723.00	221.83
724.00	228.81
725.00	241.83
726.00	223.54
727.00	238.57
728.00	270.17
729.00	233.52
730.00	220.00
731.00	221.95
732.00	222.80
733.00	218.47
734.00	218.41
735.00	225.42
736.00	247.43
737.00	264.87
738.00	339.66
739.00	469.19
740.00	289.22
741.00	240.30
742.00	219.03
743.00	225.04
744.00	232.80
745.00	231.66
746.00	209.13
747.00	214.28
748.00	217.25
749.00	222.05
750.00	318.38
751.00	934.14
752.00	706.71
753.00	378.13
754.00	251.37
755.00	219.51
756.00	215.20
757.00	213.40
758.00	219.65
759.00	220.28
760.00	217.76
761.00	218.94
762.00	219.18
763.00	273.70
764.00	1504.81
765.00	731.17
766.00	391.50
767.00	243.60
768.00	215.21
769.00	214.30
770.00	210.54
771.00	210.53
772.00	234.95
773.00	472.68
774.00	313.44
775.00	249.30
776.00	214.53
777.00	236.17
778.00	390.03
779.00	286.17
780.00	236.26
781.00	208.52
782.00	209.97
783.00	208.65
784.00	213.40
785.00	213.02
786.00	215.12
787.00	216.86
788.00	217.58
789.00	222.00
790.00	221.06
791.00	223.32
792.00	221.17
793.00	214.84
794.00	217.70
795.00	406.03
796.00	416.43
797.00	279.91
798.00	234.63
799.00	213.81
800.00	216.38
801.00	375.75
802.00	619.18
803.00	395.75
804.00	273.79
805.00	227.71
806.00	219.17
807.00	218.97
808.00	220.63
809.00	220.11
810.00	235.34
811.00	576.51
812.00	2946.67
813.00	1727.11
814.00	688.64
815.00	381.99
816.00	225.18
817.00	219.17
818.00	211.52
819.00	214.10
820.00	208.87
821.00	207.91
822.00	210.83
823.00	208.11
824.00	208.10
825.00	215.72
826.00	209.53
827.00	334.40
828.00	278.07
829.00	232.13
830.00	213.29
831.00	204.03
832.00	207.18
833.00	207.95
834.00	205.78
835.00	211.61
836.00	211.33
837.00	213.10
838.00	204.44
839.00	206.85
840.00	211.72
841.00	303.90
842.00	352.68
843.00	617.39
844.00	406.10
845.00	295.83
846.00	256.37
847.00	214.59
848.00	205.33
849.00	205.10
850.00	207.07
851.00	206.10
852.00	216.71
853.00	304.68
854.00	236.64
855.00	222.70
856.00	218.37
857.00	206.89
858.00	205.58
859.00	206.20
860.00	205.53
861.00	211.22
862.00	210.34
863.00	204.47
864.00	210.12
865.00	210.71
866.00	206.62
867.00	220.06
868.00	223.06
869.00	215.18
870.00	202.39
871.00	206.76
872.00	209.91
873.00	207.50
874.00	202.59
875.00	207.11
876.00	205.30
877.00	206.24
878.00	204.84
879.00	202.11
880.00	205.71
881.00	207.33
882.00	202.73
883.00	204.24
884.00	202.00
885.00	206.02
886.00	206.40
887.00	206.02
888.00	202.13
889.00	206.11
890.00	204.79
891.00	201.91
892.00	211.34
893.00	204.48
894.00	205.32
895.00	209.69
896.00	204.91
897.00	206.97
898.00	202.94
899.00	207.39
900.00	203.95
901.00	206.11
902.00	204.03
903.00	211.72
904.00	201.89
905.00	200.38
906.00	207.72
907.00	206.64
908.00	208.47
909.00	200.76
910.00	211.28
911.00	205.04
912.00	231.83
913.00	394.42
914.00	318.68
915.00	268.22
916.00	242.74
917.00	218.08
918.00	206.22
919.00	205.19
920.00	208.18
921.00	204.04
922.00	206.38
923.00	230.65
924.00	223.37
925.00	214.55
926.00	210.01
927.00	208.09
928.00	208.18
929.00	203.95
930.00	206.31
931.00	202.07
932.00	200.11
933.00	201.76
934.00	201.77
935.00	205.08
936.00	203.85
937.00	205.16
938.00	207.72
939.00	208.10
940.00	201.31
941.00	205.83
942.00	209.01
943.00	203.78
944.00	203.06
945.00	207.16
946.00	201.32
947.00	204.11
948.00	201.13
949.00	202.73
950.00	203.46
951.00	202.72
952.00	201.16
953.00	206.53
954.00	204.47
955.00	205.88
956.00	200.64
957.00	204.43
958.00	203.68
959.00	205.95
960.00	206.40
961.00	202.60
962.00	210.94
963.00	204.39
964.00	200.49
965.00	200.69
966.00	205.07
967.00	212.65
968.00	211.03
969.00	207.00
970.00	207.22
971.00	203.91
972.00	205.82
973.00	207.85
974.00	206.48
975.00	206.19
976.00	206.17
977.00	198.27
978.00	202.87
979.00	205.54
980.00	205.10
981.00	206.04
982.00	206.84
983.00	201.54
984.00	206.54
985.00	206.11
986.00	204.30
987.00	203.58
988.00	206.58
989.00	200.64
990.00	204.22
991.00	207.26
992.00	199.04
993.00	206.75
994.00	202.64
995.00	204.59
996.00	198.70
997.00	201.64
998.00	202.70
999.00	208.16
1000.00	203.98
>>>>>End Processed Spectral Data<<<<<
