SpectraSuite Data File
++++++++++++++++++++++++++++++++++++
Date: Tue Oct 18 14:40:16 CDT 2011
User: Helimak
Dark Spectrum Present: No
Reference Spectrum Present: No
Number of Sampled Component Spectra: 1
Spectrometers: USB2G37154
Integration Time (usec): 200000 (USB2G37154)
Spectra Averaged: 1 (USB2G37154)
Boxcar Smoothing: 0 (USB2G37154)
Correct for Electrical Dark: No (USB2G37154)
Strobe/Lamp Enabled: No (USB2G37154)
Correct for Detector Non-linearity: No (USB2G37154)
Correct for Stray Light: No (USB2G37154)
Number of Pixels in Processed Spectrum: 651
>>>>>Begin Processed Spectral Data<<<<<
350.00	204.96
351.00	200.05
352.00	202.32
353.00	206.42
354.00	203.09
355.00	205.10
356.00	200.10
357.00	204.82
358.00	208.89
359.00	209.16
360.00	201.64
361.00	206.50
362.00	205.18
363.00	202.72
364.00	207.01
365.00	204.39
366.00	205.77
367.00	203.94
368.00	204.75
369.00	204.84
370.00	206.04
371.00	209.47
372.00	204.59
373.00	205.53
374.00	207.38
375.00	205.62
376.00	206.46
377.00	211.82
378.00	211.60
379.00	214.44
380.00	213.09
381.00	213.18
382.00	213.76
383.00	217.61
384.00	219.49
385.00	220.97
386.00	214.99
387.00	220.94
388.00	216.30
389.00	213.45
390.00	214.97
391.00	218.31
392.00	214.87
393.00	221.81
394.00	227.34
395.00	220.98
396.00	215.82
397.00	216.70
398.00	219.48
399.00	217.38
400.00	233.24
401.00	239.07
402.00	236.39
403.00	245.20
404.00	246.22
405.00	234.36
406.00	233.01
407.00	245.43
408.00	231.43
409.00	235.84
410.00	232.76
411.00	221.92
412.00	225.99
413.00	231.36
414.00	226.39
415.00	259.78
416.00	245.19
417.00	235.85
418.00	254.57
419.00	315.43
420.00	276.14
421.00	237.63
422.00	245.35
423.00	242.80
424.00	236.59
425.00	291.36
426.00	316.59
427.00	312.68
428.00	270.38
429.00	266.11
430.00	257.22
431.00	241.41
432.00	264.56
433.00	304.79
434.00	461.26
435.00	343.62
436.00	283.05
437.00	278.64
438.00	251.04
439.00	276.44
440.00	267.04
441.00	258.83
442.00	351.04
443.00	285.09
444.00	239.29
445.00	231.03
446.00	226.01
447.00	239.17
448.00	241.31
449.00	235.08
450.00	247.08
451.00	250.27
452.00	253.56
453.00	253.59
454.00	283.99
455.00	262.97
456.00	261.58
457.00	277.36
458.00	316.75
459.00	287.88
460.00	357.23
461.00	309.23
462.00	257.82
463.00	244.54
464.00	237.47
465.00	271.82
466.00	251.99
467.00	240.91
468.00	242.00
469.00	245.43
470.00	242.72
471.00	245.05
472.00	280.21
473.00	285.88
474.00	253.51
475.00	245.20
476.00	282.74
477.00	253.12
478.00	242.68
479.00	246.03
480.00	390.22
481.00	287.78
482.00	247.79
483.00	241.72
484.00	270.64
485.00	289.35
486.00	297.18
487.00	459.32
488.00	404.67
489.00	298.40
490.00	266.00
491.00	259.08
492.00	259.06
493.00	270.36
494.00	251.48
495.00	253.23
496.00	282.60
497.00	256.41
498.00	246.62
499.00	251.37
500.00	279.82
501.00	289.81
502.00	262.01
503.00	258.40
504.00	266.34
505.00	282.96
506.00	284.07
507.00	284.16
508.00	274.26
509.00	269.86
510.00	248.35
511.00	254.00
512.00	249.78
513.00	255.72
514.00	281.30
515.00	259.09
516.00	252.60
517.00	245.05
518.00	264.61
519.00	256.01
520.00	245.75
521.00	246.16
522.00	248.62
523.00	244.92
524.00	246.50
525.00	259.38
526.00	248.74
527.00	244.06
528.00	238.50
529.00	241.03
530.00	242.43
531.00	241.90
532.00	245.03
533.00	247.76
534.00	261.68
535.00	263.01
536.00	258.01
537.00	260.57
538.00	255.40
539.00	249.85
540.00	243.44
541.00	243.98
542.00	252.97
543.00	249.22
544.00	248.38
545.00	255.00
546.00	258.01
547.00	267.84
548.00	252.29
549.00	280.34
550.00	273.48
551.00	260.96
552.00	252.34
553.00	248.15
554.00	246.07
555.00	261.79
556.00	270.52
557.00	256.42
558.00	242.31
559.00	241.75
560.00	253.69
561.00	246.05
562.00	240.68
563.00	233.13
564.00	244.32
565.00	249.59
566.00	241.72
567.00	254.46
568.00	250.99
569.00	246.77
570.00	250.90
571.00	253.08
572.00	235.84
573.00	243.11
574.00	249.83
575.00	237.04
576.00	231.59
577.00	239.61
578.00	233.73
579.00	238.71
580.00	238.84
581.00	233.30
582.00	228.90
583.00	235.54
584.00	237.55
585.00	233.15
586.00	240.25
587.00	240.00
588.00	246.14
589.00	256.76
590.00	235.14
591.00	247.41
592.00	235.64
593.00	242.25
594.00	234.02
595.00	231.02
596.00	227.12
597.00	235.99
598.00	231.47
599.00	240.17
600.00	243.61
601.00	246.02
602.00	252.25
603.00	320.39
604.00	293.57
605.00	264.27
606.00	248.52
607.00	230.53
608.00	225.63
609.00	224.93
610.00	238.95
611.00	252.79
612.00	244.62
613.00	232.17
614.00	229.48
615.00	238.09
616.00	233.72
617.00	254.97
618.00	234.74
619.00	247.54
620.00	228.81
621.00	242.96
622.00	231.43
623.00	221.92
624.00	234.26
625.00	240.36
626.00	237.05
627.00	230.05
628.00	229.33
629.00	235.11
630.00	237.07
631.00	233.49
632.00	229.66
633.00	227.19
634.00	221.12
635.00	222.00
636.00	223.28
637.00	224.94
638.00	221.54
639.00	223.09
640.00	231.03
641.00	235.32
642.00	243.08
643.00	233.18
644.00	225.84
645.00	225.77
646.00	232.11
647.00	226.31
648.00	226.19
649.00	228.63
650.00	222.57
651.00	222.67
652.00	221.51
653.00	219.56
654.00	226.34
655.00	225.63
656.00	305.47
657.00	285.08
658.00	237.98
659.00	225.12
660.00	222.74
661.00	220.04
662.00	216.38
663.00	215.03
664.00	234.04
665.00	230.09
666.00	219.66
667.00	222.16
668.00	229.69
669.00	223.80
670.00	217.76
671.00	215.61
672.00	216.18
673.00	218.02
674.00	216.25
675.00	244.66
676.00	249.43
677.00	224.49
678.00	217.76
679.00	214.55
680.00	215.54
681.00	212.03
682.00	218.50
683.00	212.63
684.00	216.63
685.00	216.64
686.00	213.24
687.00	231.33
688.00	224.36
689.00	225.46
690.00	211.67
691.00	213.48
692.00	215.81
693.00	215.91
694.00	234.54
695.00	223.85
696.00	245.01
697.00	353.45
698.00	256.70
699.00	227.96
700.00	220.99
701.00	213.98
702.00	218.22
703.00	239.66
704.00	233.07
705.00	222.87
706.00	216.99
707.00	301.10
708.00	245.14
709.00	225.86
710.00	211.81
711.00	217.57
712.00	215.16
713.00	215.32
714.00	211.42
715.00	227.31
716.00	214.06
717.00	215.57
718.00	212.81
719.00	210.02
720.00	210.04
721.00	219.43
722.00	213.97
723.00	214.40
724.00	218.62
725.00	228.54
726.00	211.37
727.00	228.06
728.00	237.64
729.00	221.58
730.00	216.54
731.00	212.27
732.00	218.28
733.00	211.18
734.00	209.62
735.00	218.25
736.00	224.76
737.00	229.59
738.00	258.78
739.00	334.20
740.00	246.08
741.00	219.14
742.00	212.06
743.00	215.00
744.00	216.10
745.00	219.92
746.00	216.77
747.00	207.13
748.00	204.49
749.00	213.86
750.00	256.26
751.00	529.74
752.00	443.72
753.00	294.11
754.00	232.30
755.00	211.18
756.00	210.64
757.00	205.81
758.00	212.89
759.00	210.23
760.00	204.20
761.00	208.80
762.00	213.24
763.00	238.94
764.00	794.31
765.00	445.75
766.00	290.03
767.00	222.96
768.00	213.26
769.00	208.40
770.00	208.44
771.00	210.34
772.00	218.57
773.00	336.37
774.00	256.38
775.00	225.62
776.00	204.12
777.00	216.04
778.00	273.04
779.00	233.06
780.00	213.86
781.00	207.68
782.00	204.29
783.00	205.59
784.00	208.14
785.00	206.69
786.00	208.20
787.00	207.96
788.00	209.10
789.00	214.01
790.00	212.68
791.00	210.75
792.00	207.08
793.00	211.47
794.00	209.56
795.00	303.91
796.00	304.48
797.00	239.08
798.00	224.18
799.00	210.93
800.00	209.63
801.00	284.48
802.00	395.51
803.00	300.11
804.00	238.82
805.00	213.62
806.00	211.68
807.00	210.00
808.00	208.38
809.00	214.75
810.00	223.64
811.00	384.03
812.00	1580.25
813.00	954.13
814.00	451.02
815.00	302.86
816.00	218.23
817.00	212.42
818.00	207.10
819.00	213.81
820.00	208.91
821.00	208.02
822.00	203.87
823.00	209.68
824.00	204.17
825.00	211.99
826.00	205.78
827.00	263.73
828.00	235.91
829.00	217.20
830.00	205.97
831.00	203.33
832.00	207.15
833.00	210.90
834.00	208.88
835.00	209.96
836.00	206.66
837.00	204.59
838.00	204.75
839.00	207.73
840.00	206.77
841.00	248.97
842.00	275.96
843.00	406.29
844.00	296.41
845.00	248.82
846.00	226.50
847.00	210.61
848.00	209.17
849.00	206.43
850.00	206.99
851.00	200.91
852.00	208.44
853.00	253.30
854.00	221.92
855.00	214.01
856.00	218.89
857.00	208.63
858.00	205.99
859.00	204.17
860.00	206.00
861.00	213.73
862.00	206.74
863.00	206.18
864.00	206.94
865.00	206.73
866.00	207.33
867.00	207.55
868.00	210.03
869.00	205.65
870.00	203.47
871.00	202.05
872.00	208.84
873.00	207.39
874.00	204.27
875.00	204.61
876.00	205.10
877.00	204.12
878.00	205.24
879.00	202.53
880.00	205.87
881.00	204.93
882.00	203.46
883.00	206.79
884.00	200.01
885.00	204.04
886.00	204.74
887.00	201.21
888.00	203.14
889.00	206.95
890.00	207.08
891.00	207.61
892.00	209.93
893.00	202.80
894.00	200.65
895.00	210.80
896.00	203.14
897.00	203.43
898.00	200.12
899.00	199.29
900.00	202.35
901.00	206.52
902.00	203.98
903.00	205.94
904.00	207.29
905.00	204.03
906.00	206.12
907.00	205.01
908.00	206.03
909.00	205.11
910.00	203.56
911.00	206.75
912.00	217.36
913.00	294.66
914.00	259.89
915.00	236.16
916.00	219.23
917.00	213.26
918.00	207.66
919.00	202.36
920.00	207.16
921.00	205.07
922.00	202.95
923.00	217.89
924.00	212.50
925.00	209.79
926.00	205.01
927.00	208.54
928.00	203.10
929.00	199.83
930.00	205.62
931.00	200.37
932.00	202.84
933.00	202.06
934.00	208.10
935.00	199.25
936.00	200.50
937.00	205.30
938.00	203.45
939.00	202.75
940.00	214.85
941.00	204.18
942.00	208.07
943.00	202.89
944.00	195.75
945.00	206.39
946.00	200.25
947.00	208.03
948.00	200.17
949.00	202.21
950.00	202.51
951.00	205.96
952.00	200.94
953.00	201.39
954.00	199.84
955.00	206.29
956.00	206.35
957.00	203.53
958.00	204.60
959.00	202.95
960.00	205.94
961.00	206.94
962.00	203.31
963.00	208.64
964.00	202.05
965.00	203.54
966.00	205.18
967.00	211.17
968.00	210.02
969.00	207.13
970.00	207.19
971.00	202.92
972.00	202.59
973.00	203.58
974.00	206.54
975.00	203.80
976.00	206.74
977.00	199.86
978.00	200.80
979.00	207.59
980.00	204.55
981.00	203.75
982.00	203.99
983.00	206.12
984.00	203.92
985.00	206.92
986.00	203.18
987.00	202.40
988.00	205.68
989.00	205.56
990.00	202.73
991.00	204.41
992.00	206.86
993.00	200.23
994.00	203.16
995.00	199.56
996.00	201.78
997.00	202.38
998.00	201.58
999.00	205.96
1000.00	204.06
>>>>>End Processed Spectral Data<<<<<
